##########################################################################################
### Pulsi_number Aeg[ms] ADC[0-1023] SiPM[mV] Surnud_aeg[ms] Temperatuur[C]
##########################################################################################
Olen Slave nimega Sassu
1 271 723 388.29 0 161.08
2 1175 414 93.93 14 91.80
3 12524 415 95.00 33 56.99
4 14857 344 64.67 49 55.38
5 15593 352 66.89 65 43.56
6 22589 448 112.41 81 81.48
7 23350 359 69.86 97 52.80
8 23856 449 112.05 113 81.48
9 25403 63 17.91 129 20.58
10 28828 384 80.08 196 62.15
11 31049 417 95.20 212 48.29
12 33909 583 201.26 228 98.99
13 34194 376 76.43 292 78.58
14 36256 463 119.23 308 56.46
15 38075 396 85.28 324 47.54
16 42538 483 132.60 341 61.29
17 47020 199 33.86 358 48.94
18 47576 364 71.71 374 51.30
19 50025 188 32.01 391 11.88
20 51293 412 92.93 407 67.30
21 52292 647 246.69 423 114.68
22 53388 391 82.35 440 82.24
23 53732 480 130.21 456 95.34
24 55673 255 43.96 472 43.35
25 55742 387 81.05 488 61.72
26 59725 353 67.64 507 67.30
27 60417 376 76.43 523 73.75
28 63233 688 328.69 540 118.87
29 66747 398 85.63 557 51.84
30 67358 376 76.43 573 68.38
31 69055 368 72.93 589 42.17
32 75735 364 71.71 605 52.80
33 76258 344 64.67 621 47.97
34 79255 318 57.28 639 42.49
35 88855 316 56.81 656 52.59
36 92221 376 76.43 672 78.26
37 92954 192 32.67 688 40.23
38 93263 216 36.85 705 45.07
39 95252 403 88.99 721 60.86
40 100770 304 53.73 739 52.80
41 103170 152 26.78 756 27.67
42 103482 432 101.61 772 68.59
43 103913 415 95.00 791 58.93
44 105428 230 39.39 809 41.52
45 108494 391 82.35 826 73.75
46 108640 415 95.00 842 78.26
47 117599 423 97.36 858 73.75
48 125302 368 72.93 876 78.58
49 130398 376 76.43 894 45.07
50 134024 353 67.64 911 54.09
51 134246 432 101.61 927 76.01
52 135617 368 72.93 944 57.74
53 135842 271 46.93 960 46.04
54 138711 355 68.30 979 56.24
55 139440 384 80.08 995 69.45
56 139527 152 26.78 1011 26.05
57 142221 448 112.41 1027 71.17
58 142579 327 59.28 1043 42.49
59 144052 71 19.06 1059 14.13
60 145297 476 129.76 1078 68.59
61 145350 352 66.89 1094 63.44
62 147722 487 132.65 1111 71.17
63 148041 387 81.05 1128 87.93
64 148592 526 158.17 1144 107.80
65 149858 71 19.06 1160 25.41
66 150156 455 117.03 1176 71.28
67 152162 497 142.37 1193 86.32
68 155988 486 135.98 1210 92.66
69 157532 542 168.67 1274 99.21
70 159769 384 80.08 1291 72.03
71 163153 396 85.28 1307 76.01
72 169867 463 119.23 1326 88.57
73 171323 455 117.03 1343 89.43
74 171513 240 41.21 1359 48.94
75 173333 307 54.48 1378 52.59
76 174377 536 160.18 1444 89.22
77 175780 147 26.19 1460 34.76
78 179355 415 95.00 1477 84.60
79 181866 353 67.64 1494 34.76
80 182227 319 57.64 1510 48.94
81 185479 371 73.82 1526 52.80
82 185802 252 43.42 1542 41.52
83 186385 316 56.81 1559 54.09
84 191398 716 337.96 1575 133.05
85 193285 300 52.79 1592 65.37
86 193774 284 49.41 1608 52.59
87 194325 350 66.46 1624 60.86
88 194497 312 55.68 1640 52.80
89 195153 352 66.89 1656 51.62
90 195945 252 43.42 1672 20.47
91 196444 480 130.21 1691 78.58
92 196580 270 46.71 1707 51.30
93 199761 248 42.69 1725 42.92
94 200838 327 59.28 1741 48.83
95 201321 334 61.44 1757 55.38
96 207637 384 80.08 1774 57.96
97 207781 352 66.89 1790 58.60
98 213997 337 62.30 1807 52.80
99 216905 327 59.28 1824 51.84
100 218567 295 51.75 1841 63.44
101 221079 409 91.12 1857 62.15
102 223788 385 80.11 1875 52.80
103 228863 120 23.58 1892 -11.33
104 229749 480 130.21 1909 90.08
105 229809 348 65.64 1925 46.68
106 232321 399 87.30 1941 50.55
107 233118 480 130.21 1960 89.00
108 236887 391 82.35 1976 68.59
109 237619 419 97.20 1992 72.03
110 238905 391 82.35 2008 47.97
111 242732 348 65.64 2026 41.52
112 242767 638 261.42 2042 110.70
113 249751 504 143.61 2059 73.75
114 255473 368 72.93 2075 60.86
115 258690 332 61.17 2091 47.97
116 261508 243 41.74 2107 45.07
117 267913 510 148.47 2124 78.26
118 269824 355 68.30 2140 73.75
119 274031 62 17.75 2158 -2.95
120 278114 551 164.56 2175 100.50
121 278288 140 25.42 2191 34.76
122 279273 359 69.86 2210 48.51
123 280373 412 92.93 2226 72.03
124 283604 332 61.17 2242 55.38
125 284398 536 160.18 2258 100.18
126 284558 368 72.93 2274 52.48
127 284755 120 23.58 2290 14.13
128 287081 568 189.84 2355 91.80
129 296560 511 149.39 2372 89.22
130 297442 504 143.61 2389 99.96
131 302742 344 64.67 2406 41.52
132 306418 572 183.73 2422 86.32
133 308145 415 95.00 2438 80.84
134 311394 291 50.97 2456 22.19
135 311606 391 82.35 2473 46.04
136 312629 359 69.86 2489 65.69
137 314042 231 39.55 2505 24.44
138 320846 316 56.81 2526 57.96
139 321774 344 64.67 2590 63.44
140 332161 376 76.43 2611 78.26
141 334078 188 32.01 2627 34.76
142 338425 396 85.28 2643 71.17
143 344010 312 55.68 2661 65.69
144 348320 448 112.41 2678 57.96
145 350405 415 95.00 2694 84.60
146 353415 120 23.58 2711 -2.63
147 355636 344 64.67 2727 53.66
148 356774 312 55.68 2743 55.38
149 363565 480 130.21 2760 82.24
150 369990 647 246.69 2776 110.06
151 371023 348 65.64 2792 77.62
152 385589 527 155.96 2811 84.28
153 386068 344 64.67 2830 68.59
154 386518 647 246.69 2846 105.65
155 392405 448 112.41 2862 85.03
156 395254 143 25.74 2878 9.30
157 402331 323 58.48 2895 68.59
158 403839 316 56.81 2911 40.23
159 412225 476 129.76 2928 73.21
160 414342 448 112.41 2945 66.66
161 415927 318 57.28 2962 60.86
162 416278 348 65.64 2978 50.55
163 424086 455 117.03 2997 85.03
164 429020 508 144.95 3014 94.38
165 429411 679 318.29 3030 104.47
166 434503 348 65.64 3048 74.72
167 434868 399 87.30 3064 52.48
168 435671 451 113.08 3083 84.60
169 436396 560 175.34 3100 113.71
170 439089 380 78.12 3116 60.86
171 443362 384 80.08 3132 52.59
172 453253 696 307.73 3150 123.49
173 458796 472 125.87 3166 92.76
174 465506 428 101.58 3183 86.32
175 468863 156 27.28 3201 19.61
176 472832 348 65.64 3217 37.12
177 473372 67 18.51 3233 -18.31
178 480007 700 294.28 3249 127.57
179 480459 143 25.74 3265 43.78
180 480694 664 270.86 3281 118.76
181 481919 608 202.86 3297 95.13
182 485408 359 69.86 3313 52.80
183 488123 329 59.91 3330 64.40
184 491382 273 47.25 3344 40.23
185 492866 463 119.23 3360 57.64
186 495409 423 97.36 3377 69.45
187 498418 380 78.12 3393 53.66
188 498490 384 80.08 3456 63.44
189 499743 376 76.43 3472 55.38
190 500343 369 73.42 3488 66.66
191 501118 679 318.29 3504 123.49
192 504107 472 125.87 3521 91.80
193 505023 536 160.18 3537 110.06
194 506139 415 95.00 3553 91.80
195 507271 440 109.25 3569 75.68
196 511114 368 72.93 3585 60.21
197 511312 254 43.77 3601 41.52
198 514282 527 155.96 3617 91.80
199 519744 428 101.58 3636 79.66
200 522341 312 55.68 3652 46.68
201 524632 335 61.77 3669 48.94
202 530175 472 125.87 3736 71.17
203 530402 492 134.92 3752 71.17
204 532442 444 109.09 3768 77.62
205 533797 339 62.98 3784 68.59
206 539037 391 82.35 3800 55.38
207 540222 352 66.89 3816 65.69
208 541706 384 80.08 3832 66.23
209 544743 398 85.63 3848 68.59
210 545643 255 43.96 3864 48.51
211 547444 225 38.48 3880 31.21
212 549648 387 81.05 3896 63.44
213 551373 476 129.76 3912 81.48
214 554105 454 115.28 3931 81.48
215 555982 273 47.25 3947 32.07
216 559487 391 82.35 3963 52.80
217 563831 398 85.63 3980 66.66
218 565902 240 41.21 3998 47.32
219 566304 345 64.98 4014 47.97
220 566904 355 68.30 4030 50.55
221 567329 211 35.96 4046 32.18
222 568826 327 59.28 4062 47.97
223 571256 480 130.21 4078 86.32
224 571988 344 64.67 4094 43.03
225 572544 216 36.85 4111 37.76
226 573368 287 50.23 4127 51.19
227 575119 339 62.98 4143 40.23
228 576679 319 57.64 4159 53.45
229 580689 408 90.57 4175 59.79
230 584143 192 32.67 4195 33.04
231 589702 348 65.64 4212 50.55
232 590588 319 57.64 4228 42.92
233 594132 369 73.42 4244 71.17
234 594803 224 38.29 4260 23.48
235 595536 364 71.71 4276 57.96
236 599313 344 64.67 4292 56.24
237 601675 295 51.75 4310 34.76
238 603995 252 43.42 4327 41.52
239 605621 408 90.57 4343 50.55
240 607476 398 85.63 4359 55.27
241 608111 448 112.41 4375 63.44
242 610646 478 129.43 4391 74.50
243 612308 263 45.37 4407 40.23
244 612343 391 82.35 4423 61.72
245 618470 425 99.48 4442 76.87
246 631209 339 62.98 4461 60.86
247 632391 319 57.64 4525 45.07
248 636821 344 64.67 4541 47.97
249 637236 371 73.82 4557 63.44
250 639436 486 135.98 4573 87.29
251 639719 384 80.08 4589 76.01
252 640972 96 21.67 4605 0.27
253 643074 448 112.41 4622 86.32
254 643329 393 83.55 4638 78.58
255 646931 403 88.99 4655 55.27
256 653895 664 270.86 4671 122.73
257 655655 344 64.67 4687 63.87
258 655947 305 53.88 4703 53.66
259 659199 430 101.41 4720 71.17
260 660905 344 64.67 4740 65.69
261 663176 536 160.18 4757 95.02
262 667934 472 125.87 4776 94.38
263 670775 472 125.87 4792 74.50
264 673407 403 88.99 4809 57.96
265 680682 448 112.41 4874 63.44
266 680768 448 112.41 4890 81.48
267 685385 408 90.57 4906 83.53
268 689193 60 17.43 4922 -6.49
269 689656 608 202.86 4938 96.63
270 689894 344 64.67 4954 47.97
271 694454 323 58.48 4970 47.97
272 700741 408 90.57 4989 65.69
273 701147 48 15.29 5005 -6.82
274 703780 312 55.68 5021 48.83
275 708429 387 81.05 5040 68.59
276 711430 444 109.09 5060 63.44
277 720013 112 22.94 5077 -1.02
278 720045 440 109.25 5093 55.38
279 724022 560 175.34 5109 102.97
280 724383 376 76.43 5125 82.24
281 726874 384 80.08 5142 58.60
282 728529 344 64.67 5159 63.44
283 728666 432 101.61 5175 78.37
284 733462 432 101.61 5191 89.22
285 733986 415 95.00 5207 68.59
286 738803 254 43.77 5224 53.66
287 745119 384 80.08 5241 65.69
288 753489 423 97.36 5259 67.30
289 754019 476 129.76 5275 89.43
290 759631 352 66.89 5291 76.01
291 761688 390 82.70 5310 55.38
292 764548 387 81.05 5327 52.48
293 767439 433 104.37 5345 58.93
294 769870 335 61.77 5362 50.55
295 769993 327 59.28 5378 52.80
296 773017 547 162.22 5394 94.38
297 775407 159 27.66 5410 22.19
298 779315 428 101.58 5427 83.74
299 779368 353 67.64 5443 69.45
300 781442 448 112.41 5460 61.72
301 784335 384 80.08 5476 65.69
302 784841 463 119.23 5492 87.93
303 788903 487 132.65 5508 77.62
304 792375 399 87.30 5525 48.94
305 794367 335 61.77 5542 38.41
306 797206 319 57.64 5559 32.93
307 797888 216 36.85 5621 8.87
308 799214 496 144.49 5637 90.08
309 801856 558 172.78 5654 86.32
310 806083 472 125.87 5670 81.48
311 807445 399 87.30 5686 47.97
312 807944 63 17.91 5702 6.72
313 816426 332 61.17 5719 63.76
314 818574 243 41.74 5736 31.21
315 820338 551 164.56 5752 93.09
316 822854 304 53.73 5768 32.61
317 825525 398 85.63 5784 74.50
318 828783 399 87.30 5801 83.74
319 830330 435 104.92 5817 74.39
320 830467 419 97.20 5833 58.93
321 840147 449 112.05 5850 89.00
322 840762 334 61.44 5869 68.59
323 842187 63 17.91 5885 -6.49
324 849280 353 67.64 5903 45.07
325 860349 348 65.64 5920 55.38
326 863006 476 129.76 5937 74.50
327 863769 76 19.69 5953 2.53
328 863968 504 143.61 6017 68.59
329 864362 415 95.00 6033 60.86
330 866670 415 95.00 6049 69.02
331 868095 391 82.35 6065 60.86
332 870096 384 80.08 6081 43.35
333 870712 371 73.82 6098 69.45
334 874674 435 104.92 6115 81.48
335 875951 355 68.30 6131 58.17
336 878766 408 90.57 6147 82.77
337 879207 327 59.28 6166 65.69
338 879276 543 164.77 6182 99.21
339 879723 428 101.58 6198 64.40
340 886185 376 76.43 6214 70.96
341 905934 440 109.25 6233 75.79
342 907438 515 147.53 6249 95.13
343 908359 481 129.57 6265 74.50
344 913964 536 160.18 6282 100.18
345 918793 423 97.36 6299 69.35
346 921072 403 88.99 6315 65.69
347 923310 270 46.71 6333 22.19
348 923451 368 72.93 6349 51.84
349 924826 124 23.92 6365 7.69
350 927777 304 53.73 6382 55.38
351 935751 583 201.26 6398 114.36
352 936406 291 50.97 6414 67.30
353 940773 467 121.56 6434 90.08
354 941147 103 22.23 6450 24.44
355 950170 556 174.47 6466 110.70
356 951473 582 193.83 6482 98.89
357 959009 307 54.48 6498 43.13
358 960262 408 90.57 6515 67.30
359 960548 376 76.43 6531 51.30
360 962524 455 117.03 6547 75.90
361 963252 384 80.08 6565 43.35
362 968895 344 64.67 6581 55.38
363 969547 307 54.48 6597 56.88
364 970416 255 43.96 6613 45.07
365 973444 432 101.61 6629 74.72
366 976110 172 29.49 6646 37.98
367 976266 359 69.86 6710 56.24
368 979338 432 101.61 6729 67.95
369 989070 364 71.71 6746 74.50
370 989725 113 23.02 6762 24.12
371 989912 460 119.54 6778 71.17
372 992697 670 272.62 6797 131.33
373 996949 359 69.86 6814 50.55
374 997212 540 166.11 6830 96.09
375 999481 287 50.23 6846 52.80
376 1005930 510 148.47 6863 78.37
377 1006122 305 53.88 6879 58.71
378 1006602 358 69.10 6895 64.40
379 1008778 497 142.37 6911 82.77
380 1009163 432 101.61 6927 57.96
381 1010136 483 132.60 6943 82.24
382 1013176 460 119.54 6960 88.68
383 1015744 368 72.93 6979 48.83
384 1019065 417 95.20 6996 86.21
385 1020930 384 80.08 7012 62.15
386 1022799 448 112.41 7030 68.59
387 1023263 127 24.18 7046 -2.63
388 1028792 195 33.17 7063 16.71
389 1029720 384 80.08 7079 51.19
390 1030518 273 47.25 7095 34.54
391 1032835 396 85.28 7160 61.72
392 1037727 371 73.82 7178 68.59
393 1040969 359 69.86 7194 61.72
394 1042506 280 48.67 7210 55.38
395 1042599 408 90.57 7226 68.59
396 1046362 483 132.60 7243 89.43
397 1047936 412 92.93 7259 78.58
398 1049013 543 164.77 7278 87.93
399 1049325 432 101.61 7295 87.07
400 1051302 335 61.77 7311 43.03
401 1061331 540 166.11 7328 104.69
402 1062685 423 97.36 7344 69.02
403 1065199 688 328.69 7360 119.83
404 1066411 304 53.73 7376 27.34
405 1066511 323 58.48 7392 43.56
406 1067342 348 65.64 7408 61.72
407 1070385 291 50.97 7424 32.18
408 1070561 81 20.25 7440 1.24
409 1077344 419 97.20 7456 68.59
410 1078142 352 66.89 7472 46.14
411 1084790 384 80.08 7489 48.94
412 1095064 412 92.93 7508 64.19
413 1096084 440 109.25 7527 71.17
414 1098245 359 69.86 7543 64.19
415 1101597 561 174.17 7560 96.31
416 1103366 391 82.35 7576 67.30
417 1105608 350 66.46 7592 45.07
418 1109989 614 229.43 7608 106.19
419 1111981 124 23.92 7624 -5.63
420 1112131 369 73.42 7640 42.28
421 1118805 440 109.25 7656 57.42
422 1119722 376 76.43 7672 71.17
423 1122364 359 69.86 7688 62.15
424 1123396 287 50.23 7704 54.20
425 1124828 368 72.93 7721 68.59
426 1127162 508 144.95 7785 79.87
427 1127992 51 15.86 7801 -9.07
428 1130036 355 68.30 7820 64.19
429 1131081 348 65.64 7837 55.38
430 1134190 359 69.86 7853 55.38
431 1134857 287 50.23 7870 44.10
432 1136199 440 109.25 7886 73.75
433 1141482 384 80.08 7902 58.82
434 1142503 408 90.57 7918 69.56
435 1143030 371 73.82 7934 55.38
436 1147769 391 82.35 7950 50.55
437 1148914 476 129.76 7966 90.08
438 1153828 335 61.77 7983 40.23
439 1155270 423 97.36 8000 74.29
440 1155955 384 80.08 8016 52.48
441 1156622 307 54.48 8033 37.33
442 1156700 352 66.89 8049 52.48
443 1163881 312 55.68 8069 43.56
444 1164549 472 125.87 8085 68.59
445 1167838 344 64.67 8102 57.96
446 1168252 307 54.48 8118 52.80
447 1172655 428 101.58 8135 55.38
448 1177013 79 20.03 8151 16.71
449 1178983 384 80.08 8167 50.55
450 1180359 396 85.28 8183 51.30
451 1181963 376 76.43 8199 53.88
452 1182062 472 125.87 8215 72.46
453 1187265 385 80.11 8231 65.69
454 1187992 147 26.19 8295 28.20
455 1188633 332 61.17 8311 52.80
456 1189190 368 72.93 8327 48.83
457 1192273 353 67.64 8343 64.83
458 1193120 387 81.05 8362 63.44
459 1196038 287 50.23 8379 45.07
460 1199585 408 90.57 8397 73.21
461 1204137 579 187.32 8413 84.17
462 1208866 71 19.06 8430 0.70
463 1211224 307 54.48 8446 32.18
464 1213856 415 95.00 8464 83.74
465 1216490 318 57.28 8480 48.94
466 1218020 380 78.12 8496 73.75
467 1221794 376 76.43 8512 66.66
468 1228422 440 109.25 8530 81.48
469 1232102 396 85.28 8547 52.80
470 1233955 344 64.67 8564 40.23
471 1237545 391 82.35 8580 66.66
472 1238854 430 101.41 8596 84.60
473 1240618 376 76.43 8615 46.04
474 1241594 460 119.54 8631 77.62
475 1245700 348 65.64 8648 81.48
476 1249390 316 56.81 8664 32.18
477 1251175 368 72.93 8680 70.31
478 1252848 487 132.65 8696 83.42
479 1254458 359 69.86 8712 65.69
480 1255311 483 132.60 8728 77.29
481 1256323 172 29.49 8744 15.74
482 1258391 60 17.43 8760 2.53
483 1259075 353 67.64 8776 38.62
484 1259572 352 66.89 8792 57.64
485 1261434 304 53.73 8857 42.49
486 1261775 512 144.44 8873 89.22
487 1262732 304 53.73 8889 52.80
488 1264274 423 97.36 8909 77.62
489 1269642 384 80.08 8926 54.09
490 1270250 430 101.41 8942 79.55
491 1271183 326 59.13 8958 49.90
492 1275935 590 200.72 8975 92.76
493 1276265 353 67.64 8991 73.75
494 1278590 568 189.84 9008 96.63
495 1279465 167 28.76 9024 39.80
496 1282925 440 109.25 9042 79.87
497 1283446 355 68.30 9058 71.17
498 1285512 396 85.28 9074 57.96
499 1292708 51 15.86 9090 10.59
500 1293028 371 73.82 9106 53.45
501 1301505 391 82.35 9123 81.48
502 1303572 455 117.03 9139 73.75
503 1307801 391 82.35 9159 77.62
504 1308591 300 52.79 9175 43.35
505 1311233 319 57.64 9191 40.23
506 1312089 455 117.03 9207 61.72
507 1312515 335 61.77 9223 41.52
508 1313774 348 65.64 9239 52.80
509 1317781 414 93.93 9256 69.56
510 1318052 326 59.13 9272 60.86
511 1322347 384 80.08 9288 60.86
512 1325220 463 119.23 9305 88.68
513 1326124 376 76.43 9321 53.88
514 1327267 300 52.79 9337 26.05
515 1329507 323 58.48 9353 51.84
516 1330776 348 65.64 9370 68.59
517 1343301 252 43.42 9438 40.99
518 1346724 415 95.00 9457 63.44
519 1347793 655 252.34 9473 110.06
520 1349445 664 270.86 9489 108.55
521 1355363 472 125.87 9505 98.24
522 1356817 401 87.91 9521 72.03
523 1357511 143 25.74 9537 5.86
524 1357846 207 35.26 9553 19.61
525 1357937 327 59.28 9569 43.03
526 1359268 524 150.73 9585 66.66
527 1364187 368 72.93 9601 50.55
528 1365313 359 69.86 9617 51.30
529 1365804 472 125.87 9633 84.60
530 1366851 319 57.64 9649 37.33
531 1371686 364 71.71 9665 59.25
532 1376884 387 81.05 9682 51.30
533 1377730 316 56.81 9701 55.38
534 1378494 332 61.17 9717 60.86
535 1379577 368 72.93 9733 46.04
536 1382352 595 212.63 9750 119.83
537 1386588 334 61.44 9766 42.17
538 1387442 387 81.05 9782 55.38
539 1387494 408 90.57 9798 69.45
540 1391407 487 132.65 9814 89.22
541 1392165 415 95.00 9830 52.80
542 1393726 376 76.43 9846 68.16
543 1396582 419 97.20 9862 73.75
544 1396676 326 59.13 9926 60.86
545 1403337 440 109.25 9942 76.01
546 1408197 327 59.28 9958 58.60
547 1412419 415 95.00 9974 78.58
548 1413583 369 73.42 9993 63.44
549 1415342 519 154.30 10009 70.10
550 1420522 384 80.08 10026 64.19
551 1423672 423 97.36 10042 79.55
552 1424748 339 62.98 10058 68.59
553 1425655 92 21.32 10074 12.20
554 1428571 255 43.96 10090 48.83
555 1429412 337 62.30 10106 57.96
556 1430616 496 144.49 10122 67.30
557 1432614 423 97.36 10138 73.75
558 1433520 463 119.23 10154 75.90
559 1439960 399 87.30 10174 52.59
560 1440056 408 90.57 10190 68.70
561 1444228 415 95.00 10206 57.85
562 1446049 305 53.88 10225 37.01
563 1450548 312 55.68 10242 55.17
564 1453597 359 69.86 10258 57.74
565 1455920 127 24.18 10274 2.10
566 1456985 391 82.35 10290 65.37
567 1458219 391 82.35 10306 77.62
568 1459120 412 92.93 10322 51.84
569 1463571 263 45.37 10338 37.33
570 1466846 231 39.55 10354 34.43
571 1468394 408 90.57 10370 68.70
572 1472482 401 87.91 10386 74.72
573 1473069 632 232.56 10402 124.78
574 1473265 719 344.94 10418 155.61
575 1477262 460 119.54 10435 91.80
576 1479443 575 187.30 10452 96.31
577 1481761 448 112.41 10471 60.86
578 1483576 430 101.41 10487 81.48
579 1485496 364 71.71 10504 90.19
580 1495628 312 55.68 10571 38.30
581 1495997 305 53.88 10587 40.99
582 1497876 355 68.30 10603 37.33
583 1498155 339 62.98 10619 52.70
584 1501750 487 132.65 10635 94.38
585 1502781 415 95.00 10651 56.99
586 1504714 312 55.68 10667 45.07
587 1506135 335 61.77 10683 50.55
588 1506691 384 80.08 10699 54.09
589 1512937 448 112.41 10715 90.08
590 1516491 401 87.91 10731 70.53
591 1519040 480 130.21 10751 95.13
592 1519117 271 46.93 10767 55.38
593 1525159 350 66.46 10784 37.01
594 1526630 423 97.36 10800 67.95
595 1528711 440 109.25 10816 84.60
596 1533054 384 80.08 10832 75.90
597 1538160 368 72.93 10848 48.83
598 1538739 384 80.08 10864 67.30
599 1546051 304 53.73 10880 37.12
600 1551125 476 129.76 10897 94.38
601 1555515 96 21.67 10913 8.65
602 1556463 355 68.30 10929 48.18
603 1559619 412 92.93 10993 72.46
604 1559922 368 72.93 11009 68.59
605 1563472 435 104.92 11026 60.86
606 1566538 319 57.64 11048 40.99
607 1567191 380 78.12 11064 63.65
608 1568599 316 56.81 11080 43.35
609 1570736 359 69.86 11096 61.72
610 1572148 504 143.61 11113 81.48
611 1573113 206 35.07 11130 43.78
612 1574579 339 62.98 11146 42.28
613 1574807 448 112.41 11162 73.75
614 1575663 387 81.05 11178 55.38
615 1579903 115 23.18 11194 14.02
616 1580233 332 61.17 11210 44.75
617 1581289 312 55.68 11226 41.52
618 1586602 451 113.08 11243 62.15
619 1587347 120 23.58 11259 22.19
620 1589671 67 18.51 11278 -7.46
621 1590428 448 112.41 11294 74.50
622 1591445 339 62.98 11310 38.09
623 1591937 289 50.47 11326 32.39
624 1593029 337 62.30 11342 36.37
625 1593930 563 181.65 11358 94.59
626 1595024 664 270.86 11374 134.98
627 1597631 403 88.99 11391 66.45
628 1603996 156 27.28 11409 31.21
629 1604335 448 112.41 11425 73.75
630 1607322 248 42.69 11441 16.92
631 1607439 335 61.77 11457 43.35
632 1608697 487 132.65 11473 76.01
633 1610249 364 71.71 11489 55.38
634 1610820 380 78.12 11505 68.59
635 1610908 391 82.35 11524 71.17
636 1613380 368 72.93 11540 47.97
637 1615895 368 72.93 11556 68.92
638 1619800 448 112.41 11572 71.17
639 1620865 51 15.86 11588 9.30
640 1621211 359 69.86 11604 42.49
641 1621820 433 104.37 11620 75.79
642 1625176 371 73.82 11636 54.09
643 1627271 280 48.67 11700 45.07
644 1629654 216 36.85 11716 34.76
645 1632460 337 62.30 11732 50.55
646 1637289 339 62.98 11748 47.97
647 1640688 428 101.58 11765 70.74
648 1646865 335 61.77 11782 43.24
649 1650402 448 112.41 11799 81.48
650 1651366 376 76.43 11818 58.93
651 1651610 384 80.08 11834 69.45
652 1653877 412 92.93 11850 51.84
653 1655288 359 69.86 11867 72.46
654 1660833 415 95.00 11884 63.44
655 1661120 359 69.86 11900 66.66
656 1663009 79 20.03 11917 14.13
657 1664858 327 59.28 11933 51.84
658 1666811 339 62.98 11949 57.96
659 1667243 384 80.08 11965 68.59
660 1671287 318 57.28 11981 42.17
661 1676793 448 112.41 11998 55.38
662 1680843 664 270.86 12063 107.91
663 1681068 449 112.05 12079 97.49
664 1681521 312 55.68 12098 66.66
665 1681729 348 65.64 12114 63.44
666 1688000 361 70.62 12132 73.75
667 1689121 305 53.88 12148 40.23
668 1691415 364 71.71 12164 52.80
669 1691966 359 69.86 12180 63.44
670 1692075 425 99.48 12196 76.54
671 1694890 79 20.03 12213 7.15
672 1696766 89 21.05 12229 16.60
673 1707238 396 85.28 12246 63.44
674 1707495 339 62.98 12262 60.86
675 1709185 396 85.28 12278 55.38
676 1710283 403 88.99 12294 53.88
677 1713486 384 80.08 12310 76.01
678 1724565 376 76.43 12327 73.75
679 1727316 408 90.57 12346 60.86
680 1739416 472 125.87 12363 73.75
681 1741587 327 59.28 12379 43.35
682 1742336 467 121.56 12395 83.74
683 1746054 339 62.98 12412 48.83
684 1751082 263 45.37 12430 32.18
685 1752105 432 101.61 12447 96.63
686 1753594 353 67.64 12463 48.08
687 1754958 384 80.08 12479 57.64
688 1758571 359 69.86 12495 58.93
689 1759694 316 56.81 12512 62.90
690 1760065 291 50.97 12528 50.55
691 1762750 344 64.67 12544 63.44
692 1767254 287 50.23 12560 37.76
693 1769043 368 72.93 12579 71.17
694 1770888 295 51.75 12595 29.92
695 1777489 339 62.98 12612 50.65
696 1778966 358 69.10 12628 40.23
697 1779793 643 246.01 12644 113.07
698 1782099 316 56.81 12661 64.19
699 1784539 368 72.93 12678 45.07
700 1784734 78 19.92 12694 3.82
701 1786403 399 87.30 12710 51.84
702 1788451 561 174.17 12726 89.43
703 1790550 359 69.86 12742 52.48
704 1791007 184 31.36 12758 12.84
705 1792830 376 76.43 12774 68.81
706 1793108 463 119.23 12838 79.55
707 1796820 480 130.21 12855 89.22
708 1799276 519 154.30 12874 91.80
709 1804595 440 109.25 12890 74.07
710 1805690 487 132.65 12906 72.46
711 1813937 384 80.08 12922 60.86
712 1815617 248 42.69 12938 32.18
713 1816239 408 90.57 12954 68.59
714 1821974 408 90.57 12970 55.38
715 1827736 419 97.20 12986 56.99
716 1831898 368 72.93 13002 42.49
717 1834015 423 97.36 13018 69.24
718 1834725 364 71.71 13034 70.96
719 1840071 414 93.93 13050 63.44
720 1841266 353 67.64 13066 50.55
721 1842532 193 32.84 13130 12.63
722 1844474 300 52.79 13150 27.34
723 1844561 423 97.36 13166 65.16
724 1844892 483 132.60 13182 89.22
725 1854169 376 76.43 13198 62.15
726 1863538 460 119.54 13216 73.75
727 1864754 353 67.64 13232 61.72
728 1866187 494 141.37 13248 65.69
729 1867639 364 71.71 13265 68.06
730 1871128 510 148.47 13282 94.38
731 1872318 391 82.35 13299 78.26
732 1873316 312 55.68 13315 37.76
733 1873568 433 104.37 13331 71.17
734 1878254 414 93.93 13348 56.99
735 1884240 195 33.17 13364 22.19
736 1884984 364 71.71 13380 40.99
737 1885009 335 61.77 13399 50.55
738 1885111 300 52.79 13415 47.97
739 1886660 376 76.43 13431 58.82
740 1893565 467 121.56 13447 74.72
741 1895398 496 144.49 13463 99.21
742 1898042 364 71.71 13479 60.86
743 1899393 176 30.09 13495 18.00
744 1900052 323 58.48 13511 50.55
745 1902237 334 61.44 13527 60.86
746 1902458 368 72.93 13543 64.40
747 1905392 291 50.97 13561 56.99
748 1906830 435 104.92 13577 59.03
749 1907638 300 52.79 13593 36.37
750 1912352 380 78.12 13611 51.84
751 1915379 391 82.35 13630 57.96
752 1920860 480 130.21 13646 68.59
753 1922643 348 65.64 13662 55.06
754 1925977 332 61.17 13679 58.17
755 1926101 51 15.86 13695 3.82
756 1929295 319 57.64 13712 29.92
757 1929967 472 125.87 13728 86.00
758 1931081 408 90.57 13744 63.44
759 1941726 344 64.67 13763 46.04
760 1943539 455 117.03 13780 71.17
761 1948659 76 19.69 13796 -0.26
762 1951035 120 23.58 13814 -1.02
763 1958250 423 97.36 13831 64.94
764 1968285 352 66.89 13849 63.44
765 1972463 332 61.17 13866 40.99
766 1975101 348 65.64 13885 46.68
767 1978554 433 104.37 13901 90.08
768 1980899 271 46.93 13918 42.49
769 1981670 408 90.57 13982 63.44
770 1984159 376 76.43 13999 74.50
771 1985378 323 58.48 14015 64.40
772 1986252 483 132.60 14031 68.70
773 1987531 268 46.26 14047 52.80
774 1990985 97 21.75 14063 -10.58
775 1993792 63 17.91 14079 -9.07
776 2006530 432 101.61 14098 73.75
777 2006830 89 21.05 14114 16.71
778 2012761 159 27.66 14130 25.52
779 2015163 639 249.88 14147 123.49
780 2019335 327 59.28 14212 42.49
781 2020873 433 104.37 14231 59.79
782 2023795 327 59.28 14247 69.45
783 2024534 319 57.64 14263 37.12
784 2025518 364 71.71 14279 60.86
785 2027762 568 189.84 14295 94.38
786 2033252 428 101.58 14311 77.62
787 2035722 376 76.43 14328 60.86
788 2037762 398 85.63 14344 61.72
789 2038446 399 87.30 14361 76.87
790 2038633 463 119.23 14377 90.08
791 2040747 344 64.67 14394 69.56
792 2042951 307 54.48 14410 41.52
793 2046416 369 73.42 14427 64.19
794 2046773 387 81.05 14443 50.55
795 2049608 323 58.48 14462 50.55
796 2052613 455 117.03 14478 81.48
797 2055705 376 76.43 14495 62.15
798 2060611 318 57.28 14511 52.80
799 2060877 423 97.36 14527 73.75
800 2062677 391 82.35 14543 76.87
801 2063032 519 154.30 14559 82.24
802 2065472 403 88.99 14575 81.48
803 2066988 480 130.21 14591 78.58
804 2067124 487 132.65 14607 95.02
805 2068867 275 47.73 14623 24.34
806 2069776 88 20.96 14639 11.34
807 2074708 655 252.34 14655 107.70
808 2076571 307 54.48 14671 68.59
809 2078813 620 217.12 14687 94.38
810 2084553 448 112.41 14707 74.39
811 2086424 487 132.65 14724 75.58
812 2091774 359 69.86 14740 46.04
813 2097970 359 69.86 14757 47.97
814 2099957 681 309.95 14773 117.15
815 2116899 192 32.67 14793 22.94
816 2117295 588 183.26 14809 99.21
817 2117679 364 71.71 14825 45.07
818 2118885 364 71.71 14841 48.83
819 2120563 344 64.67 14857 42.28
820 2120663 399 87.30 14873 63.44
821 2121147 527 155.96 14889 84.17
822 2122453 332 61.17 14905 55.92
823 2127573 399 87.30 14921 57.64
824 2127690 344 64.67 14940 57.96
825 2133731 327 59.28 14956 48.72
826 2136150 399 87.30 14972 75.79
827 2138581 339 62.98 14990 46.04
828 2139659 448 112.41 15006 74.50
829 2142676 344 64.67 15022 44.75
830 2148419 543 164.77 15040 87.29
831 2150683 231 39.55 15056 22.19
832 2154402 448 112.41 15120 77.62
833 2158491 287 50.23 15136 51.84
834 2158547 327 59.28 15152 52.48
835 2163010 344 64.67 15169 38.41
836 2167615 335 61.77 15186 51.84
837 2168894 881 1204.97 15202 154.96
838 2170268 297 52.13 15270 51.30
839 2170443 415 95.00 15286 72.03
840 2171861 304 53.73 15302 48.83
841 2175054 327 59.28 15320 45.61
842 2176975 358 69.10 15336 51.30
843 2178619 384 80.08 15352 72.46
844 2179058 302 53.30 15368 55.38
845 2180312 380 78.12 15385 76.01
846 2183533 280 48.67 15401 61.72
847 2186304 371 73.82 15418 63.97
848 2195032 417 95.20 15435 72.46
849 2198067 432 101.61 15452 79.87
850 2206495 348 65.64 15470 58.93
851 2207808 396 85.28 15486 76.22
852 2207829 371 73.82 15502 68.59
853 2209339 304 53.73 15521 41.52
854 2213313 255 43.96 15538 38.62
855 2216498 451 113.08 15554 79.55
856 2218641 88 20.96 15570 12.63
857 2220738 604 210.97 15586 115.75
858 2221959 344 64.67 15602 76.01
859 2222399 430 101.41 15619 78.58
860 2222735 368 72.93 15635 72.03
861 2225996 366 72.41 15653 72.03
862 2226246 366 72.41 15669 55.06
863 2226617 504 143.61 15685 90.19
864 2230392 492 134.92 15702 98.99
865 2232757 327 59.28 15718 55.27
866 2234474 476 129.76 15734 83.74
867 2246795 62 17.75 15752 -9.07
868 2247517 102 22.15 15771 -3.92
869 2249464 396 85.28 15787 73.75
870 2251595 384 80.08 15803 76.01
871 2254607 335 61.77 15820 37.12
872 2259913 451 113.08 15836 66.55
873 2263504 423 97.36 15852 79.55
874 2263674 339 62.98 15868 64.94
875 2266049 137 25.12 15884 -4.24
876 2266503 575 187.30 15900 91.80
877 2266552 472 125.87 15916 94.38
878 2270063 352 66.89 15932 76.01
879 2271677 435 104.92 15948 86.32
880 2272970 440 109.25 15965 82.24
881 2273180 432 101.61 15981 78.58
882 2274011 408 90.57 16000 81.48
883 2277339 273 47.25 16017 54.09
884 2279302 142 25.64 16034 29.92
885 2282225 412 92.93 16050 57.64
886 2285323 271 46.93 16066 31.86
887 2286168 319 57.64 16082 54.09
888 2295709 494 141.37 16100 84.60
889 2295891 359 69.86 16116 71.17
890 2296518 454 115.28 16132 64.19
891 2296625 540 166.11 16148 96.63
892 2296700 344 64.67 16164 71.17
893 2297035 408 90.57 16180 58.93
894 2302776 487 132.65 16199 76.01
895 2304243 335 61.77 16263 36.58
896 2305996 316 56.81 16279 51.30
897 2306120 423 97.36 16346 72.89
898 2307743 408 90.57 16362 62.15
899 2311693 432 101.61 16379 82.77
900 2316863 344 64.67 16395 60.86
901 2319896 499 141.24 16411 79.23
902 2325396 451 113.08 16427 68.59
903 2330767 359 69.86 16444 67.30
904 2332000 355 68.30 16460 53.66
905 2334199 480 130.21 16476 86.32
906 2338810 286 49.78 16492 50.55
907 2339267 476 129.76 16508 83.74
908 2340547 207 35.26 16524 22.19
909 2341238 287 50.23 16540 29.92
910 2342735 384 80.08 16557 58.93
911 2347599 403 88.99 16577 64.40
912 2356943 287 50.23 16594 37.33
913 2359808 412 92.93 16610 55.38
914 2360459 353 67.64 16626 63.44
915 2361448 408 90.57 16642 78.80
916 2368248 88 20.96 16658 -9.07
917 2371062 352 66.89 16674 45.07
918 2371636 433 104.37 16690 64.19
919 2374257 284 49.41 16706 30.67
920 2382331 423 97.36 16723 52.80
921 2383800 275 47.73 16739 47.97
922 2385532 355 68.30 16756 68.59
923 2387244 359 69.86 16772 73.75
924 2391092 396 85.28 16788 68.59
925 2392266 332 61.17 16804 42.28
926 2395149 444 109.09 16823 63.44
927 2395251 428 101.58 16839 75.90
928 2401248 504 143.61 16859 94.38
929 2401548 167 28.76 16875 38.30
930 2405756 414 93.93 16894 83.53
931 2407456 280 48.67 16910 45.07
932 2411598 467 121.56 16926 91.80
933 2413372 524 150.73 16942 94.38
934 2414720 551 164.56 16959 94.70
935 2418511 412 92.93 16975 79.87
936 2419279 280 48.67 16991 56.24
937 2419460 476 129.76 17007 71.17
938 2421013 590 200.72 17024 117.26
939 2421809 465 122.12 17040 68.38
940 2422042 355 68.30 17059 64.40
941 2423473 380 78.12 17075 74.72
942 2430653 403 88.99 17092 60.86
943 2433038 355 68.30 17109 50.55
944 2438299 449 112.05 17125 76.87
945 2441905 188 32.01 17141 42.06
946 2444298 417 95.20 17157 69.56
947 2449962 391 82.35 17173 60.86
948 2450654 319 57.64 17189 57.96
949 2452371 384 80.08 17205 52.80
950 2455726 467 121.56 17221 73.75
951 2456736 371 73.82 17238 51.30
952 2461369 489 138.11 17255 83.74
953 2462702 396 85.28 17271 60.86
954 2463746 449 112.05 17287 86.32
955 2464665 401 87.91 17316 57.96
956 2465674 455 117.03 17380 75.68
957 2466670 302 53.30 17396 45.07
958 2470274 305 53.88 17460 40.99
959 2473145 152 26.78 17476 29.92
960 2478106 419 97.20 17492 79.34
961 2479108 414 93.93 17508 63.44
962 2481117 364 71.71 17525 37.76
963 2489136 348 65.64 17541 52.48
964 2489400 335 61.77 17557 55.38
965 2490936 432 101.61 17574 72.03
966 2491302 327 59.28 17590 38.19
967 2495501 444 109.09 17606 67.30
968 2497296 337 62.30 17623 41.52
969 2497561 287 50.23 17642 42.49
970 2498655 376 76.43 17658 42.17
971 2499516 271 46.93 17674 40.23
972 2504548 248 42.69 17690 24.44
973 2505910 319 57.64 17706 34.76
974 2510652 313 56.02 17722 34.76
975 2513529 624 242.54 17739 133.69
976 2517316 227 38.83 17755 31.53
977 2517690 350 66.46 17771 47.32
978 2522044 240 41.21 17787 28.31
979 2526415 366 72.41 17806 50.55
980 2528684 339 62.98 17822 42.71
981 2529076 473 126.29 17838 83.42
982 2533590 307 54.48 17854 32.82
983 2536798 448 112.41 17871 69.45
984 2537290 350 66.46 17891 63.44
985 2543358 81 20.25 17907 4.79
986 2546091 398 85.63 17924 50.55
987 2547114 332 61.17 17940 29.92
988 2547902 76 19.69 17956 7.69
989 2549075 679 318.29 17972 118.01
990 2550683 444 109.09 17989 87.29
991 2551216 355 68.30 18005 71.17
992 2551791 568 189.84 18022 83.42
993 2556710 440 109.25 18038 73.96
994 2561669 480 130.21 18054 74.50
995 2562062 334 61.44 18070 43.56
996 2563287 462 120.87 18086 78.58
997 2563966 561 174.17 18102 89.22
998 2565810 305 53.88 18121 40.23
999 2571465 480 130.21 18137 95.02
1000 2572532 319 57.64 18153 69.45
1001 2572601 460 119.54 18169 85.03
1002 2573387 364 71.71 18185 74.50
1003 2583291 327 59.28 18201 38.30
1004 2584396 432 101.61 18218 82.24
1005 2586500 240 41.21 18234 29.06
1006 2591538 339 62.98 18250 46.57
1007 2593612 319 57.64 18266 50.55
1008 2593780 335 61.77 18282 54.09
1009 2597132 352 66.89 18299 65.69
1010 2601886 396 85.28 18315 48.29
1011 2602492 332 61.17 18331 46.04
1012 2603342 504 143.61 18350 78.58
1013 2605831 415 95.00 18367 56.24
1014 2611243 529 156.43 18383 102.65
1015 2613835 376 76.43 18448 47.75
1016 2616903 240 41.21 18467 55.38
1017 2621869 376 76.43 18485 55.27
1018 2623005 396 85.28 18501 76.76
1019 2625274 159 27.66 18517 -2.63
1020 2628496 398 85.63 18534 53.45
1021 2632080 428 101.58 18598 83.74
1022 2637592 366 72.41 18615 65.91
1023 2639188 625 226.08 18632 102.11
1024 2640313 350 66.46 18648 60.86
1025 2641922 385 80.11 18664 57.96
1026 2648828 414 93.93 18685 83.53
1027 2652689 425 99.48 18701 64.40
1028 2655667 611 211.89 18717 114.68
1029 2660935 463 119.23 18733 57.96
1030 2661670 364 71.71 18749 51.30
1031 2662331 270 46.71 18765 45.28
1032 2663214 412 92.93 18781 63.44
1033 2663772 472 125.87 18797 89.22
1034 2664073 371 73.82 18813 74.72
1035 2664940 387 81.05 18830 75.90
1036 2669264 543 164.77 18847 91.80
1037 2670919 199 33.86 18863 14.13
1038 2676817 472 125.87 18880 82.77
1039 2679431 319 57.64 18896 57.96
1040 2684423 255 43.96 18915 29.92
1041 2685572 448 112.41 18931 65.69
1042 2686429 355 68.30 18947 53.66
1043 2701501 433 104.37 18965 79.87
1044 2703078 480 130.21 18981 73.75
1045 2705367 476 129.76 18997 71.17
1046 2705680 112 22.94 19013 20.90
1047 2706430 376 76.43 19030 71.17
1048 2708607 463 119.23 19047 83.63
1049 2708881 560 175.34 19063 110.81
1050 2709792 387 81.05 19079 83.74
1051 2728881 211 35.96 19097 24.34
1052 2732684 391 82.35 19113 60.86
1053 2737524 451 113.08 19130 71.17
1054 2741365 79 20.03 19149 16.71
1055 2742043 344 64.67 19165 58.60
1056 2747630 49 15.48 19182 7.58
1057 2758748 353 67.64 19199 61.72
1058 2759668 487 132.65 19216 98.89
1059 2761127 451 113.08 19232 53.66
1060 2767091 476 129.76 19249 90.19
1061 2769053 408 90.57 19265 87.29
1062 2784606 536 160.18 19282 89.43
1063 2785439 355 68.30 19298 57.74
1064 2789307 366 72.41 19315 56.99
1065 2800629 305 53.88 19334 57.96
1066 2801241 368 72.93 19350 67.30
1067 2802615 384 80.08 19367 73.75
1068 2803563 399 87.30 19383 58.39
1069 2810415 472 125.87 19405 87.29
1070 2815919 359 69.86 19422 62.15
1071 2818031 409 91.12 19438 83.42
1072 2820995 271 46.93 19454 31.86
1073 2831555 412 92.93 19471 55.06
1074 2838560 316 56.81 19536 45.07
1075 2840132 398 85.63 19552 57.64
1076 2845937 127 24.18 19569 14.02
1077 2847379 312 55.68 19585 47.97
1078 2855514 344 64.67 19602 43.35
1079 2856265 483 132.60 19619 91.80
1080 2859660 480 130.21 19636 79.23
1081 2865646 96 21.67 19653 3.82
1082 2874196 391 82.35 19670 56.99
1083 2881808 355 68.30 19689 59.03
1084 2886765 556 174.47 19754 75.68
1085 2891059 455 117.03 19770 73.21
1086 2893082 359 69.86 19786 65.69
1087 2896751 348 65.64 19803 63.97
1088 2898483 419 97.20 19819 75.15
1089 2903542 536 160.18 19838 102.11
1090 2910241 401 87.91 19854 60.86
1091 2915365 103 22.23 19870 -1.02
1092 2918043 465 122.12 19887 65.69
1093 2936471 440 109.25 19905 83.42
1094 2937504 355 68.30 19921 72.89
1095 2943500 391 82.35 19939 73.75
1096 2947943 384 80.08 19955 55.38
1097 2955695 384 80.08 19975 55.06
1098 2958420 291 50.97 19991 29.92
1099 2961538 384 80.08 20007 55.60
1100 2961585 120 23.58 20023 14.13
1101 2965751 335 61.77 20040 56.24
1102 2967865 323 58.48 20057 65.69
1103 2969217 403 88.99 20073 71.17
1104 2971319 432 101.61 20091 63.44
1105 2975189 423 97.36 20107 73.75
1106 2976544 448 112.41 20123 74.72
1107 2976589 305 53.88 20139 55.38
1108 2977410 335 61.77 20155 60.86
1109 2981106 319 57.64 20171 45.07
1110 2981147 435 104.92 20187 71.17
1111 2985388 319 57.64 20206 57.96
1112 2987982 92 21.32 20223 5.43
1113 2988514 478 129.43 20239 74.50
1114 2993321 423 97.36 20255 63.97
1115 2994383 127 24.18 20271 -1.02
1116 2994878 312 55.68 20287 31.21
1117 2996418 359 69.86 20303 54.09
1118 2997122 327 59.28 20319 34.76
1119 3001962 460 119.54 20336 81.48
1120 3002285 79 20.03 20352 19.61
1121 3006412 499 141.24 20368 94.70
1122 3011318 335 61.77 20384 45.07
1123 3011743 472 125.87 20400 62.15
1124 3011909 307 54.48 20416 52.80
1125 3021590 526 158.17 20436 100.50
1126 3021859 344 64.67 20452 73.75
1127 3024725 711 380.66 20470 140.46
1128 3029743 243 41.74 20487 45.07
1129 3032287 369 73.42 20503 64.40
1130 3032398 376 76.43 20519 65.69
1131 3038526 487 132.65 20535 87.93
1132 3050494 543 164.77 20552 84.81
1133 3050900 412 92.93 20616 79.87
1134 3052770 550 172.20 20632 81.48
1135 3056581 463 119.23 20648 76.01
1136 3057061 49 15.48 20664 12.63
1137 3062501 286 49.78 20681 55.38
1138 3062798 423 97.36 20697 74.72
1139 3076996 399 87.30 20717 74.07
1140 3086551 536 160.18 20734 79.44
1141 3087778 284 49.41 20751 29.92
1142 3088364 348 65.64 20767 45.07
1143 3088864 408 90.57 20784 59.03
1144 3092599 307 54.48 20801 54.09
1145 3100860 480 130.21 20817 72.14
1146 3102864 312 55.68 20833 32.18
1147 3103908 575 187.30 20897 96.31
1148 3105169 385 80.11 20913 81.48
1149 3107120 327 59.28 20930 68.59
1150 3107381 199 33.86 20946 2.53
1151 3109744 302 53.30 20962 26.70
1152 3117668 435 104.92 20979 68.59
1153 3121286 352 66.89 20998 48.83
1154 3124268 252 43.42 21014 52.80
1155 3124576 319 57.64 21030 52.80
1156 3124978 316 56.81 21046 52.80
1157 3125397 415 95.00 21062 52.48
1158 3128385 355 68.30 21078 52.80
1159 3129671 76 19.69 21094 -17.02
1160 3130424 510 148.47 21110 81.48
1161 3130947 368 72.93 21126 74.39
1162 3133322 71 19.06 21142 -18.85
1163 3133558 419 97.20 21159 81.48
1164 3136200 96 21.67 21176 -0.91
1165 3141801 355 68.30 21193 40.23
1166 3146614 316 56.81 21209 37.33
1167 3148178 519 154.30 21225 98.89
1168 3153348 422 97.97 21244 63.44
1169 3157296 387 81.05 21261 45.07
1170 3159660 364 71.71 21278 73.75
1171 3161934 312 55.68 21294 42.17
1172 3164138 79 20.03 21310 -9.07
1173 3165517 423 97.36 21326 68.06
1174 3167265 364 71.71 21342 52.80
1175 3167427 327 59.28 21358 52.80
1176 3169029 335 61.77 21374 37.01
1177 3169406 318 57.28 21390 50.55
1178 3170896 99 21.91 21406 19.61
1179 3171179 63 17.91 21422 -2.95
1180 3174117 398 85.63 21438 52.80
1181 3174366 536 160.18 21454 78.58
1182 3180996 319 57.64 21474 48.94
1183 3183411 391 82.35 21490 51.30
1184 3189134 376 76.43 21507 53.45
1185 3192500 348 65.64 21523 69.45
1186 3195704 387 81.05 21542 61.29
1187 3197025 419 97.20 21558 52.80
1188 3197289 327 59.28 21574 53.66
1189 3198772 368 72.93 21591 82.24
1190 3201962 60 17.43 21607 -6.49
1191 3203082 352 66.89 21623 53.66
1192 3203443 344 64.67 21687 57.96
1193 3205042 199 33.86 21703 34.76
1194 3207009 332 61.17 21719 62.15
1195 3207813 159 27.66 21735 22.19
1196 3209433 492 134.92 21755 93.09
1197 3211010 344 64.67 21771 40.23
1198 3215090 335 61.77 21788 64.83
1199 3217587 327 59.28 21805 58.71
1200 3222179 368 72.93 21821 62.15
1201 3224139 579 187.32 21837 109.20
1202 3225842 334 61.44 21853 44.75
1203 3226507 199 33.86 21869 33.04
1204 3228863 304 53.73 21885 55.38
1205 3229835 188 32.01 21901 16.71
1206 3230367 366 72.41 21917 41.52
1207 3231046 179 30.55 21933 12.20
1208 3231896 353 67.64 21949 55.38
1209 3232323 337 62.30 21965 45.07
1210 3232856 359 69.86 22032 56.99
1211 3233424 371 73.82 22048 68.59
1212 3241202 359 69.86 22068 63.87
1213 3245679 496 144.49 22084 86.32
1214 3247527 329 59.91 22102 60.86
1215 3247607 396 85.28 22118 68.81
1216 3249198 487 132.65 22134 76.01
1217 3249451 316 56.81 22150 57.96
1218 3258653 304 53.73 22167 48.94
1219 3263519 390 82.70 22183 68.59
1220 3268259 352 66.89 22199 65.69
1221 3272490 280 48.67 22216 47.97
1222 3272681 344 64.67 22232 40.99
1223 3272832 300 52.79 22248 43.78
1224 3273198 368 72.93 22267 46.04
1225 3276387 359 69.86 22283 41.52
1226 3277093 332 61.17 22299 57.64
1227 3277725 318 57.28 22315 58.39
1228 3277876 359 69.86 22331 64.19
1229 3279395 414 93.93 22348 50.55
1230 3279687 127 24.18 22364 16.71
1231 3280960 632 232.56 22380 109.84
1232 3284288 319 57.64 22396 52.48
1233 3284860 51 15.86 22413 22.19
1234 3294795 337 62.30 22431 47.97
1235 3297282 358 69.10 22447 45.07
1236 3298087 335 61.77 22463 40.99
1237 3298152 412 92.93 22479 62.15
1238 3302157 327 59.28 22495 48.94
1239 3303133 284 49.41 22514 40.34
1240 3306736 472 125.87 22530 56.99
1241 3308258 671 277.06 22547 105.98
1242 3308701 376 76.43 22563 81.48
1243 3308913 435 104.92 22579 85.03
1244 3309217 231 39.55 22595 47.54
1245 3310496 399 87.30 22611 52.59
1246 3312240 369 73.42 22627 53.66
1247 3312779 304 53.73 22643 52.80
1248 3314597 316 56.81 22660 42.49
1249 3319430 391 82.35 22676 73.75
1250 3329750 440 109.25 22692 73.64
1251 3329817 556 174.47 22756 104.15
1252 3331850 414 93.93 22772 57.96
1253 3335729 428 101.58 22792 82.77
1254 3336197 376 76.43 22808 53.02
1255 3337402 319 57.64 22824 51.84
1256 3342065 401 87.91 22840 58.17
1257 3343469 262 45.24 22856 38.30
1258 3344361 319 57.64 22872 55.38
1259 3346180 512 144.44 22889 95.13
1260 3350091 368 72.93 22904 63.22
1261 3352403 515 147.53 22920 77.29
1262 3360632 403 88.99 22937 72.46
1263 3361754 65 18.22 22953 -5.74
1264 3361779 408 90.57 22969 45.07
1265 3362778 408 90.57 22985 50.55
1266 3363448 460 119.54 23001 81.48
1267 3367988 414 93.93 23020 60.86
1268 3368896 415 95.00 23037 79.01
1269 3372237 398 85.63 23053 55.17
1270 3373355 184 31.36 23069 12.63
1271 3374485 387 81.05 23085 53.66
1272 3379609 376 76.43 23101 45.07
1273 3382156 359 69.86 23166 49.90
1274 3388956 615 227.36 23183 120.91
1275 3390537 399 87.30 23199 74.07
1276 3392539 307 54.48 23215 31.86
1277 3394530 358 69.10 23231 50.55
1278 3395056 359 69.86 23247 63.44
1279 3395544 348 65.64 23263 40.23
1280 3395744 319 57.64 23279 50.55
1281 3396666 145 25.96 23298 9.30
1282 3397988 327 59.28 23314 49.47
1283 3398396 391 82.35 23330 68.59
1284 3399094 403 88.99 23347 57.64
1285 3399525 508 144.95 23363 94.38
1286 3401051 472 125.87 23379 86.32
1287 3401382 412 92.93 23395 82.77
1288 3402431 448 112.41 23411 70.96
1289 3404187 231 39.55 23427 19.61
1290 3406091 399 87.30 23444 57.96
1291 3406660 295 51.75 23460 50.55
1292 3409713 115 23.18 23476 14.99
1293 3413352 216 36.85 23492 11.88
1294 3414046 524 150.73 23508 89.65
1295 3416230 352 66.89 23527 62.15
1296 3417339 284 49.41 23543 40.99
1297 3419721 384 80.08 23560 42.49
1298 3421656 435 104.92 23576 66.66
1299 3424657 353 67.64 23593 47.97
1300 3427914 428 101.58 23611 78.58
1301 3434921 543 164.77 23629 97.49
1302 3439835 323 58.48 23646 52.80
1303 3442843 591 188.65 23662 95.13
1304 3443694 179 30.55 23678 14.13
1305 3448285 352 66.89 23694 42.92
1306 3451368 419 97.20 23711 71.17
1307 3454072 435 104.92 23727 73.75
1308 3454236 120 23.58 23743 22.19
1309 3457161 284 49.41 23812 42.92
1310 3459303 384 80.08 23828 51.84
1311 3461889 543 164.77 23844 87.29
1312 3466048 335 61.77 23862 42.49
1313 3467083 401 87.91 23878 73.75
1314 3467148 664 270.86 23894 125.63
1315 3467853 412 92.93 23911 84.60
1316 3468398 270 46.71 23927 30.67
1317 3475970 167 28.76 23943 22.19
1318 3478745 463 119.23 23959 86.32
1319 3479120 739 495.61 23975 134.98
1320 3481647 414 93.93 23991 62.90
1321 3482005 176 30.09 24007 1.24
1322 3482808 323 58.48 24023 32.07
1323 3484901 335 61.77 24042 40.34
1324 3486059 515 147.53 24058 96.63
1325 3487450 323 58.48 24074 37.33
1326 3487941 368 72.93 24090 50.55
1327 3487992 348 65.64 24106 55.38
1328 3496754 193 32.84 24123 11.88
1329 3498844 337 62.30 24139 43.35
1330 3500468 312 55.68 24155 44.85
1331 3501112 419 97.20 24171 75.15
1332 3501357 415 95.00 24187 78.58
1333 3505514 448 112.41 24205 83.74
1334 3516325 263 45.37 24221 22.19
1335 3518787 384 80.08 24237 69.45
1336 3531879 167 28.76 24303 10.26
1337 3533637 352 66.89 24322 59.03
1338 3538567 415 95.00 24340 79.55
1339 3540741 348 65.64 24358 64.40
1340 3543898 179 30.55 24377 28.85
1341 3544771 271 46.93 24393 42.49
1342 3546126 399 87.30 24409 56.24
1343 3546242 519 154.30 24425 91.80
1344 3547066 423 97.36 24441 88.68
1345 3555223 371 73.82 24458 49.90
1346 3555381 543 164.77 24474 96.09
1347 3555656 207 35.26 24490 43.78
1348 3557706 371 73.82 24506 67.30
1349 3561569 531 160.62 24523 102.11
1350 3570143 368 72.93 24541 44.75
1351 3571381 448 112.41 24560 83.74
1352 3574631 295 51.75 24576 42.49
1353 3575911 355 68.30 24592 65.69
1354 3578240 396 85.28 24608 68.70
1355 3580341 326 59.13 24624 40.99
1356 3582935 403 88.99 24640 57.74
1357 3584995 414 93.93 24658 97.49
1358 3590629 318 57.28 24675 46.04
1359 3591138 248 42.69 24691 40.23
1360 3595058 227 38.83 24707 37.33
1361 3601430 568 189.84 24724 109.84
1362 3604765 387 81.05 24741 74.50
1363 3607719 423 97.36 24757 83.53
1364 3608002 327 59.28 24773 41.52
1365 3609242 391 82.35 24789 53.45
1366 3610399 419 97.20 24808 60.86
1367 3611143 335 61.77 24824 52.80
1368 3617109 120 23.58 24891 23.15
1369 3618777 327 59.28 24907 29.92
1370 3619814 334 61.44 24923 47.97
1371 3620243 396 85.28 24940 57.96
1372 3623810 615 227.36 24956 92.66
1373 3624458 560 175.34 24972 83.74
1374 3628127 480 130.21 24989 84.60
1375 3635050 359 69.86 25005 71.17
1376 3635811 376 76.43 25021 58.93
1377 3644843 463 119.23 25039 73.00
1378 3646434 408 90.57 25055 60.86
1379 3654806 380 78.12 25073 66.66
1380 3660154 344 64.67 25092 66.77
1381 3662275 305 53.88 25108 51.84
1382 3665564 348 65.64 25124 42.49
1383 3666760 332 61.17 25141 64.40
1384 3668332 403 88.99 25157 52.48
1385 3669673 462 120.87 25173 81.48
1386 3676719 419 97.20 25190 68.06
1387 3677595 359 69.86 25206 42.49
1388 3679932 312 55.68 25222 34.76
1389 3684074 359 69.86 25238 50.55
1390 3684223 448 112.41 25254 76.01
1391 3685856 295 51.75 25270 29.92
1392 3688239 63 17.91 25286 9.30
1393 3691973 380 78.12 25303 64.19
1394 3693845 463 119.23 25323 65.69
1395 3701617 334 61.44 25342 74.50
1396 3703036 399 87.30 25358 50.55
1397 3703604 454 115.28 25374 81.48
1398 3705432 287 50.23 25390 60.86
1399 3714630 414 93.93 25454 74.72
1400 3717109 448 112.41 25470 65.69
1401 3718136 63 17.91 25486 1.03
1402 3720711 88 20.96 25503 3.82
1403 3721110 227 38.83 25519 24.34
1404 3722642 419 97.20 25535 60.86
1405 3722830 216 36.85 25551 34.76
1406 3725293 352 66.89 25567 55.38
1407 3727000 432 101.61 25583 59.57
1408 3727945 60 17.43 25602 -3.92
1409 3735432 127 24.18 25622 19.61
1410 3741327 632 232.56 25638 105.65
1411 3743531 316 56.81 25655 57.96
1412 3746891 348 65.64 25671 45.07
1413 3747052 271 46.93 25687 40.23
1414 3749382 127 24.18 25703 11.88
1415 3752350 319 57.64 25719 32.18
1416 3753332 323 58.48 25735 37.33
1417 3753545 127 24.18 25751 11.88
1418 3756858 408 90.57 25767 57.96
1419 3757489 423 97.36 25783 78.58
1420 3759345 414 93.93 25799 74.72
1421 3763341 97 21.75 25816 -6.49
1422 3776766 326 59.13 25835 32.93
1423 3781768 463 119.23 25851 83.20
1424 3783895 305 53.88 25867 37.12
1425 3785247 63 17.91 25883 -11.33
1426 3786993 224 38.29 25899 27.88
1427 3788725 344 64.67 25963 51.84
1428 3789921 432 101.61 25981 79.01
1429 3792895 192 32.67 25998 22.19
1430 3793532 348 65.64 26014 46.68
1431 3800894 408 90.57 26033 73.21
1432 3801686 540 166.11 26049 76.01
1433 3801856 359 69.86 26065 66.77
1434 3802866 259 44.69 26081 50.55
1435 3806380 152 26.78 26100 33.04
1436 3806583 423 97.36 26116 56.99
1437 3806784 415 95.00 26135 73.75
1438 3810420 209 35.61 26152 37.33
1439 3813105 480 130.21 26169 91.80
1440 3816929 448 112.41 26186 59.03
1441 3818964 193 32.84 26203 42.49
1442 3819716 248 42.69 26220 49.47
1443 3822215 327 59.28 26236 63.44
1444 3825694 88 20.96 26253 17.78
1445 3827811 188 32.01 26270 37.12
1446 3832216 327 59.28 26286 45.07
1447 3837137 79 20.03 26302 16.39
1448 3839074 743 466.23 26319 135.30
1449 3844995 376 76.43 26336 48.83
1450 3850999 335 61.77 26353 53.66
1451 3856715 408 90.57 26374 63.22
1452 3860666 432 101.61 26391 60.86
1453 3864359 359 69.86 26408 47.54
1454 3870650 415 95.00 26426 48.83
1455 3870731 403 88.99 26442 66.66
1456 3872952 732 451.17 26458 116.93
1457 3875760 275 47.73 26475 38.09
1458 3880938 547 162.22 26491 76.01
1459 3882096 327 59.28 26507 46.68
1460 3882969 480 130.21 26523 81.48
1461 3884208 335 61.77 26539 69.45
1462 3885548 344 64.67 26603 69.45
1463 3886618 608 202.86 26619 119.62
1464 3898680 348 65.64 26636 47.43
1465 3901255 417 95.20 26655 60.86
1466 3902988 409 91.12 26671 73.75
1467 3903391 355 68.30 26687 52.80
1468 3904540 369 73.42 26703 51.84
1469 3905853 337 62.30 26719 45.07
1470 3911498 590 200.72 26736 92.66
1471 3912284 332 61.17 26752 44.53
1472 3916814 286 49.78 26768 40.23
1473 3918427 387 81.05 26784 51.30
1474 3919224 408 90.57 26800 62.90
1475 3922662 412 92.93 26818 50.55
1476 3928374 337 62.30 26834 42.17
1477 3930856 430 101.41 26850 73.75
1478 3934059 319 57.64 26866 51.30
1479 3937431 319 57.64 26887 49.69
1480 3938893 387 81.05 26903 56.24
1481 3942715 403 88.99 26922 71.17
1482 3943594 545 167.38 26938 78.80
1483 3943804 335 61.77 26954 64.19
1484 3944680 287 50.23 26971 65.69
1485 3945073 304 53.73 26987 55.38
1486 3946168 339 62.98 27051 52.80
1487 3947286 527 155.96 27068 83.42
1488 3947364 348 65.64 27084 67.30
1489 3952631 220 37.58 27100 32.18
1490 3954106 254 43.77 27116 29.92
1491 3955755 448 112.41 27134 81.59
1492 3956689 463 119.23 27150 78.58
1493 3957518 387 81.05 27169 52.80
1494 3957600 579 187.32 27185 102.11
1495 3961717 504 143.61 27201 86.32
1496 3962343 318 57.28 27217 43.35
1497 3966524 152 26.78 27235 25.41
1498 3974203 423 97.36 27251 60.21
1499 3978162 83 20.46 27268 24.44
1500 3980530 536 160.18 27285 83.74
1501 3983565 435 104.92 27301 68.59
1502 3987115 415 95.00 27319 64.40
1503 3987911 384 80.08 27335 55.27
1504 3988600 312 55.68 27351 55.38
1505 3988731 359 69.86 27367 60.86
1506 3988870 332 61.17 27383 56.99
1507 3989062 231 39.55 27402 19.61
1508 3989698 323 58.48 27418 37.76
1509 3995831 462 120.87 27435 91.80
1510 4005011 185 31.51 27454 26.05
1511 4006306 344 64.67 27470 62.90
1512 4012350 423 97.36 27490 82.77
1513 4015508 371 73.82 27506 80.41
1514 4016766 384 80.08 27522 51.84
1515 4019411 140 25.42 27539 -5.63
1516 4024988 376 76.43 27555 73.75
1517 4027599 399 87.30 27572 50.55
1518 4030396 344 64.67 27588 60.86
1519 4032422 227 38.83 27604 27.34
1520 4034570 332 61.17 27620 55.38
1521 4039222 350 66.46 27641 55.38
1522 4041253 312 55.68 27657 54.09
1523 4041620 321 58.01 27673 42.49
1524 4045657 478 129.43 27690 105.65
1525 4047015 224 38.29 27754 52.59
1526 4049857 455 117.03 27770 68.59
1527 4053131 423 97.36 27786 58.71
1528 4054463 472 125.87 27802 74.50
1529 4058941 287 50.23 27819 40.23
1530 4059795 316 56.81 27835 42.17
1531 4062886 216 36.85 27851 29.92
1532 4066109 480 130.21 27867 77.62
1533 4066687 415 95.00 27883 64.40
1534 4069636 376 76.43 27899 45.07
1535 4073695 312 55.68 27918 35.40
1536 4079726 415 95.00 27934 74.07
1537 4081253 337 62.30 27950 68.38
1538 4081855 327 59.28 27967 63.44
1539 4082696 335 61.77 27983 63.44
1540 4083900 430 101.41 28000 74.72
1541 4085102 455 117.03 28016 57.96
1542 4086311 364 71.71 28032 69.13
1543 4093977 327 59.28 28048 63.44
1544 4094042 430 101.41 28064 76.01
1545 4104215 352 66.89 28130 52.59
1546 4106073 318 57.28 28147 44.96
1547 4112140 376 76.43 28163 62.15
1548 4112409 255 43.96 28179 42.49
1549 4112610 319 57.64 28196 60.86
1550 4115130 440 109.25 28216 89.22
1551 4116611 483 132.60 28232 79.34
1552 4116654 463 119.23 28248 87.93
1553 4123256 348 65.64 28267 60.21
1554 4134641 465 122.12 28283 79.55
1555 4134870 401 87.91 28299 55.38
1556 4135622 286 49.78 28315 30.67
1557 4137361 440 109.25 28331 63.44
1558 4138609 444 109.09 28347 76.76
1559 4140390 339 62.98 28364 81.48
1560 4141888 384 80.08 28381 64.19
1561 4148554 312 55.68 28399 46.04
1562 4156199 408 90.57 28415 55.60
1563 4157347 455 117.03 28431 73.75
1564 4160897 263 45.37 28451 42.49
1565 4161137 384 80.08 28467 63.44
1566 4162585 412 92.93 28483 61.72
1567 4163429 504 143.61 28499 95.34
1568 4169834 476 129.76 28517 68.92
1569 4175920 448 112.41 28533 86.32
1570 4179390 238 40.82 28549 32.61
1571 4180140 518 151.06 28565 87.29
1572 4182066 476 129.76 28582 98.99
1573 4184056 543 164.77 28599 106.94
1574 4185592 414 93.93 28615 74.50
1575 4188517 551 164.56 28631 105.44
1576 4192247 252 43.42 28647 32.18
1577 4198239 327 59.28 28664 40.23
1578 4198648 364 71.71 28683 60.86
1579 4210266 199 33.86 28704 14.02
1580 4211807 350 66.46 28720 51.84
1581 4213312 504 143.61 28738 98.24
1582 4214695 352 66.89 28754 57.64
1583 4214816 448 112.41 28770 77.62
1584 4216269 368 72.93 28786 75.90
1585 4218809 287 50.23 28802 32.82
1586 4220914 512 144.44 28818 86.32
1587 4234927 327 59.28 28834 50.55
1588 4240896 332 61.17 28899 46.04
1589 4240950 422 97.97 28915 68.59
1590 4242729 444 109.09 28931 82.77
1591 4244970 483 132.60 28949 92.66
1592 4245485 414 93.93 28968 50.55
1593 4246437 312 55.68 28984 42.17
1594 4246819 391 82.35 29000 65.37
1595 4246840 460 119.54 29016 83.53
1596 4249579 398 85.63 29033 66.66
1597 4252273 67 18.51 29049 11.88
1598 4253211 103 22.23 29065 -6.49
1599 4255268 433 104.37 29081 59.57
1600 4256356 398 85.63 29098 65.37
1601 4261527 225 38.48 29115 17.68
1602 4265071 312 55.68 29132 42.49
1603 4266845 352 66.89 29148 52.80
1604 4270326 312 55.68 29212 45.07
1605 4277585 352 66.89 29229 65.69
1606 4279764 476 129.76 29248 86.32
1607 4279842 281 48.90 29264 55.38
1608 4283659 728 431.28 29281 145.94
1609 4285889 63 17.91 29298 9.30
1610 4285950 440 109.25 29314 60.86
1611 4286247 432 101.61 29330 78.26
1612 4286314 369 73.42 29346 71.17
1613 4287955 387 81.05 29362 64.19
1614 4292536 492 134.92 29378 86.32
1615 4297727 115 23.18 29394 -5.42
1616 4298781 432 101.61 29411 65.69
1617 4302429 417 95.20 29427 71.17
1618 4308124 364 71.71 29446 71.17
1619 4310474 350 66.46 29462 50.55
1620 4314175 359 69.86 29481 36.37
1621 4321175 531 160.62 29497 71.17
1622 4322233 408 90.57 29513 78.80
1623 4325020 414 93.93 29531 63.44
1624 4328801 207 35.26 29548 12.09
1625 4329182 231 39.55 29564 16.39
1626 4331052 287 50.23 29581 52.80
1627 4333094 312 55.68 29597 24.44
1628 4333518 376 76.43 29613 58.82
1629 4337591 319 57.64 29630 57.64
1630 4340787 430 101.41 29647 63.44
1631 4341098 92 21.32 29663 14.13
1632 4342085 355 68.30 29679 59.79
1633 4343547 291 50.97 29695 34.76
1634 4343984 275 47.73 29714 40.99
1635 4346662 399 87.30 29731 71.17
1636 4347073 355 68.30 29747 50.55
1637 4347733 441 109.77 29763 81.48
1638 4350136 384 80.08 29779 75.68
1639 4350321 462 120.87 29795 87.29
1640 4351647 399 87.30 29811 82.24
1641 4354916 327 59.28 29827 59.25
1642 4358154 127 24.18 29843 14.13
1643 4361164 568 189.84 29860 89.22
1644 4365143 440 109.25 29877 74.50
1645 4366227 414 93.93 29893 74.50
1646 4370935 455 117.03 29910 57.85
1647 4379945 335 61.77 29928 48.83
1648 4382289 335 61.77 29947 63.44
1649 4384160 449 112.05 29963 67.30
1650 4385824 460 119.54 29979 64.19
1651 4392301 384 80.08 30044 78.37
1652 4393932 423 97.36 30060 58.82
1653 4406872 348 65.64 30079 66.98
1654 4407345 352 66.89 30095 37.12
1655 4411864 49 15.48 30115 12.63
1656 4413760 355 68.30 30132 60.21
1657 4415228 359 69.86 30148 50.55
1658 4418086 263 45.37 30164 42.92
1659 4419062 376 76.43 30180 67.95
1660 4419216 359 69.86 30196 65.69
1661 4425754 384 80.08 30213 52.80
1662 4426603 508 144.95 30281 95.34
1663 4426680 675 317.99 30297 137.13
1664 4428906 369 73.42 30314 73.21
1665 4431241 399 87.30 30331 51.84
1666 4433481 422 97.97 30347 58.82
1667 4433598 391 82.35 30363 67.95
1668 4441373 355 68.30 30380 60.86
1669 4442539 448 112.41 30396 67.95
1670 4444265 211 35.96 30412 22.19
1671 4448080 352 66.89 30428 49.90
1672 4448450 295 51.75 30445 32.18
1673 4449416 472 125.87 30461 68.92
1674 4451518 287 50.23 30477 47.97
1675 4454721 540 166.11 30493 99.96
1676 4455566 511 149.39 30512 73.75
1677 4457750 97 21.75 30528 -0.91
1678 4468820 398 85.63 30544 70.96
1679 4469258 199 33.86 30560 31.96
1680 4469337 480 130.21 30576 74.72
1681 4473713 476 129.76 30593 93.95
1682 4474453 339 62.98 30609 38.09
1683 4474560 487 132.65 30625 78.58
1684 4477525 368 72.93 30641 67.30
1685 4477839 71 19.06 30657 11.88
1686 4479493 174 29.79 30676 33.04
1687 4481993 403 88.99 30692 64.19
1688 4490869 487 132.65 30711 102.97
1689 4491917 304 53.73 30727 46.04
1690 4492701 408 90.57 30743 66.66
1691 4494703 291 50.97 30763 72.03
1692 4499207 348 65.64 30780 53.23
1693 4499478 273 47.25 30796 45.07
1694 4501199 287 50.23 30812 29.38
1695 4506095 408 90.57 30828 55.38
1696 4513165 376 76.43 30844 60.86
1697 4521988 339 62.98 30861 60.86
1698 4524147 384 80.08 30877 63.44
1699 4532157 449 112.05 30893 65.69
1700 4535934 408 90.57 30910 72.46
1701 4537401 707 320.63 30926 117.15
1702 4538832 319 57.64 30943 57.96
1703 4540573 364 71.71 30960 53.88
1704 4544890 448 112.41 30976 79.55
1705 4545574 348 65.64 30995 63.44
1706 4551726 112 22.94 31011 11.88
1707 4552228 289 50.47 31027 32.82
1708 4554769 110 22.78 31043 21.65
1709 4555524 448 112.41 31059 73.64
1710 4555603 287 50.23 31075 52.05
1711 4557960 252 43.42 31091 24.23
1712 4558657 384 80.08 31107 63.22
1713 4558884 696 307.73 31123 130.47
1714 4564673 376 76.43 31188 52.80
1715 4566910 408 90.57 31204 65.69
1716 4569931 412 92.93 31220 63.44
1717 4571566 508 144.95 31236 80.20
1718 4573914 380 78.12 31252 60.86
1719 4600506 399 87.30 31275 71.17
1720 4603021 384 80.08 31291 60.86
1721 4607236 71 19.06 31358 20.04
1722 4610952 312 55.68 31375 38.95
1723 4616579 414 93.93 31391 55.38
1724 4618685 332 61.17 31408 45.07
1725 4624815 384 80.08 31425 73.75
1726 4627873 430 101.41 31442 82.77
1727 4630300 412 92.93 31458 48.51
1728 4635588 323 58.48 31475 45.07
1729 4637843 371 73.82 31491 52.48
1730 4644377 428 101.58 31507 65.69
1731 4645733 508 144.95 31523 74.50
1732 4647169 56 16.76 31539 -5.42
1733 4648258 230 39.39 31558 32.93
1734 4653788 494 141.37 31574 78.58
1735 4659244 463 119.23 31591 76.01
1736 4667693 337 62.30 31609 42.49
1737 4668810 319 57.64 31626 63.44
1738 4670471 312 55.68 31642 40.99
1739 4678563 63 17.91 31660 9.30
1740 4681500 102 22.15 31678 40.23
1741 4681565 568 189.84 31694 94.38
1742 4690137 391 82.35 31712 72.03
1743 4691071 472 125.87 31728 76.01
1744 4698003 391 82.35 31745 55.27
1745 4700648 396 85.28 31761 63.65
1746 4703453 412 92.93 31777 67.95
1747 4706363 339 62.98 31844 55.06
1748 4707783 526 158.17 31860 78.58
1749 4708288 583 201.26 31876 89.22
1750 4710746 497 142.37 31892 86.00
1751 4714506 335 61.77 31909 60.21
1752 4714643 385 80.11 31925 68.06
1753 4715808 344 64.67 31941 47.97
1754 4721153 184 31.36 31958 47.97
1755 4722007 454 115.28 31974 78.58
1756 4723242 231 39.55 31991 32.61
1757 4724366 344 64.67 32007 43.35
1758 4725058 248 42.69 32023 29.92
1759 4735884 352 66.89 32040 40.23
1760 4737860 145 25.96 32056 12.20
1761 4738134 295 51.75 32075 38.30
1762 4738161 368 72.93 32091 52.80
1763 4741297 353 67.64 32107 56.24
1764 4742652 377 76.28 32123 58.39
1765 4744231 396 85.28 32139 63.44
1766 4746668 492 134.92 32157 63.44
1767 4751730 368 72.93 32173 55.38
1768 4755711 467 121.56 32189 89.97
1769 4758176 344 64.67 32205 63.44
1770 4758957 481 129.57 32221 91.80
1771 4761979 423 97.36 32237 73.75
1772 4766098 419 97.20 32253 74.50
1773 4767006 348 65.64 32269 68.59
1774 4770118 403 88.99 32285 70.31
1775 4771390 460 119.54 32304 63.44
1776 4778535 371 73.82 32323 47.97
1777 4781093 412 92.93 32389 64.19
1778 4781900 560 175.34 32406 106.94
1779 4782042 385 80.11 32422 58.82
1780 4784385 271 46.93 32438 37.01
1781 4788527 376 76.43 32456 57.96
1782 4790956 476 129.76 32473 82.77
1783 4792443 536 160.18 32489 83.53
1784 4793784 423 97.36 32506 52.80
1785 4794715 332 61.17 32522 47.97
1786 4797615 480 130.21 32538 82.13
1787 4812530 483 132.60 32554 73.75
1788 4818276 403 88.99 32571 52.59
1789 4824876 376 76.43 32593 49.90
1790 4827881 334 61.44 32656 48.94
1791 4829313 126 24.09 32672 24.44
1792 4830305 352 66.89 32735 40.23
1793 4831108 440 109.25 32751 63.44
1794 4835821 371 73.82 32814 53.23
1795 4852758 455 117.03 32833 88.57
1796 4857893 335 61.77 32896 50.55
1797 4860564 624 242.54 32913 110.70
1798 4861996 387 81.05 32976 57.64
1799 4867008 302 53.30 32992 49.47
1800 4867616 300 52.79 33055 38.30
1801 4871617 344 64.67 33072 45.07
1802 4874576 295 51.75 33135 42.49
1803 4876449 440 109.25 33152 63.44
1804 4879458 275 47.73 33166 38.09
1805 4885956 385 80.11 33182 54.09
1806 4886299 385 80.11 33198 69.45
1807 4886731 280 48.67 33214 29.92
1808 4890279 444 109.09 33230 76.01
1809 4892069 430 101.41 33246 65.69
1810 4900669 387 81.05 33266 57.96
1811 4901798 480 130.21 33282 73.75
1812 4902518 176 30.09 33298 34.43
1813 4903514 376 76.43 33314 55.38
1814 4903533 287 50.23 33330 46.04
1815 4903660 352 66.89 33346 38.19
1816 4904419 671 277.06 33362 126.06
1817 4906990 312 55.68 33379 46.04
1818 4909259 384 80.08 33398 62.15
1819 4910301 399 87.30 33415 71.17
1820 4911781 344 64.67 33432 55.38
1821 4917468 415 95.00 33451 63.44
1822 4918062 423 97.36 33467 50.55
1823 4922841 319 57.64 33484 55.38
1824 4927539 415 95.00 33501 59.25
1825 4928612 472 125.87 33517 91.80
1826 4929345 575 187.30 33533 96.63
1827 4932668 419 97.20 33549 78.58
1828 4933738 480 130.21 33565 96.31
1829 4935170 384 80.08 33581 81.48
1830 4941374 368 72.93 33597 78.58
1831 4944006 568 189.84 33614 89.86
1832 4944625 304 53.73 33633 38.30
1833 4946675 515 147.53 33649 92.76
1834 4950383 428 101.58 33666 72.03
1835 4954959 259 44.69 33684 53.66
1836 4955168 430 101.41 33700 75.79
1837 4957173 448 112.41 33717 63.44
1838 4961675 192 32.67 33733 15.42
1839 4963125 348 65.64 33749 46.68
1840 4964384 344 64.67 33813 39.16
1841 4967159 398 85.63 33830 68.38
1842 4974454 287 50.23 33846 37.33
1843 4977915 355 68.30 33862 50.55
1844 4978707 575 187.30 33878 94.70
1845 4979278 384 80.08 33894 57.96
1846 4985944 83 20.46 33914 -1.66
1847 4986139 408 90.57 33977 52.80
1848 4995893 344 64.67 33995 43.35
1849 4998774 551 164.56 34011 91.80
1850 5001313 399 87.30 34027 50.55
1851 5002424 327 59.28 34045 73.75
1852 5005920 463 119.23 34062 92.66
1853 5008561 60 17.43 34079 -6.49
1854 5008885 352 66.89 34095 43.35
1855 5011605 384 80.08 34111 69.56
1856 5014066 352 66.89 34128 60.86
1857 5014501 280 48.67 34144 50.55
1858 5015975 254 43.77 34160 34.76
1859 5019303 348 65.64 34177 64.40
1860 5021207 268 46.26 34204 48.40
1861 5021548 227 38.83 34221 40.23
1862 5022297 376 76.43 34237 64.19
1863 5024806 364 71.71 34253 60.86
1864 5026303 415 95.00 34269 81.48
1865 5031138 463 119.23 34287 73.75
1866 5031886 380 78.12 34303 73.75
1867 5035553 335 61.77 34320 54.09
1868 5037074 384 80.08 34336 72.46
1869 5037769 376 76.43 34352 57.96
1870 5039514 326 59.13 34368 34.76
1871 5040244 327 59.28 34384 38.62
1872 5040807 359 69.86 34400 45.07
1873 5044768 480 130.21 34417 84.28
1874 5045821 206 35.07 34436 30.67
1875 5046034 339 62.98 34452 37.33
1876 5048135 403 88.99 34468 53.45
1877 5052012 60 17.43 34484 14.02
1878 5056452 399 87.30 34501 73.75
1879 5057538 83 20.46 34517 -3.92
1880 5065184 323 58.48 34533 47.97
1881 5067167 440 109.25 34549 73.96
1882 5070332 408 90.57 34566 55.27
1883 5071159 403 88.99 34582 74.29
1884 5074220 387 81.05 34598 65.69
1885 5078531 243 41.74 34615 29.92
1886 5079566 334 61.44 34631 31.21
1887 5081281 60 17.43 34647 -0.26
1888 5082787 448 112.41 34668 73.75
1889 5087616 399 87.30 34685 51.84
1890 5091158 369 73.42 34701 60.21
1891 5092219 380 78.12 34717 54.09
1892 5093648 51 15.86 34733 12.63
1893 5099267 384 80.08 34750 64.40
1894 5100389 463 119.23 34766 74.50
1895 5103814 455 117.03 34783 67.30
1896 5104481 399 87.30 34800 64.19
1897 5105363 248 42.69 34816 29.92
1898 5112089 254 43.77 34832 27.34
1899 5115727 540 166.11 34848 86.32
1900 5121611 419 97.20 34864 74.50
1901 5127932 348 65.64 34881 57.96
1902 5132291 108 22.63 34897 19.61
1903 5137460 398 85.63 34964 65.69
1904 5139229 496 144.49 34980 91.80
1905 5142620 415 95.00 34996 73.75
1906 5144949 376 76.43 35059 78.26
1907 5145179 199 33.86 35075 37.23
1908 5145637 271 46.93 35091 46.04
1909 5151038 185 31.51 35107 20.90
1910 5155468 376 76.43 35123 65.69
1911 5155676 408 90.57 35139 74.72
1912 5156089 103 22.23 35155 19.61
1913 5165232 327 59.28 35171 58.93
1914 5166208 476 129.76 35187 78.37
1915 5168404 476 129.76 35203 72.89
1916 5169134 519 154.30 35219 74.07
1917 5170060 280 48.67 35238 56.24
1918 5172659 551 164.56 35254 91.80
1919 5173798 384 80.08 35270 61.72
1920 5177406 352 66.89 35288 66.66
1921 5180765 440 109.25 35304 69.02
1922 5181637 275 47.73 35320 27.56
1923 5186447 428 101.58 35336 73.75
1924 5187370 83 20.46 35352 -1.02
1925 5187970 440 109.25 35368 60.86
1926 5191058 664 270.86 35384 131.33
1927 5193159 179 30.55 35400 0.27
1928 5195096 387 81.05 35416 72.89
1929 5201089 419 97.20 35433 69.45
1930 5201926 327 59.28 35449 56.24
1931 5202562 408 90.57 35468 73.96
1932 5204354 376 76.43 35484 60.86
1933 5209006 369 73.42 35501 78.58
1934 5215501 403 88.99 35519 52.59
1935 5215587 371 73.82 35535 60.86
1936 5217254 547 162.22 35551 99.21
1937 5219426 496 144.49 35567 86.32
1938 5220832 353 67.64 35583 73.75
1939 5221471 449 112.05 35599 62.15
1940 5226569 519 154.30 35615 73.75
1941 5228376 408 90.57 35631 55.38
1942 5230094 384 80.08 35647 53.66
1943 5233315 441 109.77 35664 64.19
1944 5234421 460 119.54 35680 63.76
1945 5241063 497 142.37 35702 116.93
1946 5242440 412 92.93 35719 64.19
1947 5244753 460 119.54 35735 83.42
1948 5247553 524 150.73 35751 109.84
1949 5248645 319 57.64 35767 45.07
1950 5251227 403 88.99 35783 58.39
1951 5253196 359 69.86 35799 57.74
1952 5257182 377 76.28 35816 47.97
1953 5261299 167 28.76 35833 37.01
1954 5261414 291 50.97 35849 40.23
1955 5266736 476 129.76 35866 75.68
1956 5270290 369 73.42 35883 53.45
1957 5270449 56 16.76 35899 4.79
1958 5273980 393 83.55 35915 68.59
1959 5283002 480 130.21 35934 82.77
1960 5287605 560 175.34 35950 100.28
1961 5289006 302 53.30 35966 39.16
1962 5294160 399 87.30 35984 81.48
1963 5295743 312 55.68 36000 43.78
1964 5296209 455 117.03 36016 77.51
1965 5298971 504 143.61 36080 94.91
1966 5301261 455 117.03 36144 79.55
1967 5301965 391 82.35 36160 61.72
1968 5303379 344 64.67 36176 37.33
1969 5304577 176 30.09 36192 14.13
1970 5305046 408 90.57 36208 63.44
1971 5307013 415 95.00 36224 63.44
1972 5307538 600 203.87 36240 112.42
1973 5307597 371 73.82 36259 83.53
1974 5315669 457 118.95 36275 91.80
1975 5315831 368 72.93 36291 74.72
1976 5316465 273 47.25 36307 52.80
1977 5316664 463 119.23 36323 65.69
1978 5318625 376 76.43 36339 55.38
1979 5321987 440 109.25 36355 57.64
1980 5327526 462 120.87 36371 72.03
1981 5333846 344 64.67 36388 65.37
1982 5339246 327 59.28 36404 48.94
1983 5340491 376 76.43 36420 50.55
1984 5340816 435 104.92 36436 76.87
1985 5345210 198 33.69 36455 42.92
1986 5356480 335 61.77 36473 66.66
1987 5356653 327 59.28 36492 57.96
1988 5361416 255 43.96 36509 28.31
1989 5362562 448 112.41 36525 81.48
1990 5366852 369 73.42 36541 53.66
1991 5369745 704 326.52 36559 142.07
1992 5376093 231 39.55 36577 46.68
1993 5377392 376 76.43 36593 48.83
1994 5377717 280 48.67 36609 45.07
1995 5378958 359 69.86 36626 68.59
1996 5381896 287 50.23 36642 34.76
1997 5382476 396 85.28 36658 65.69
1998 5390345 384 80.08 36678 58.82
1999 5392209 348 65.64 36696 46.04
2000 5393449 647 246.69 36713 119.62
2001 5401111 494 141.37 36732 74.72
2002 5404733 371 73.82 36748 61.72
2003 5407309 563 181.65 36764 95.34
2004 5407335 396 85.28 36780 81.48
2005 5409251 451 113.08 36796 87.07
2006 5410758 295 51.75 36812 63.44
2007 5411034 359 69.86 36828 63.97
2008 5411836 423 97.36 36844 68.38
2009 5412132 339 62.98 36860 62.15
2010 5412809 121 23.66 36876 8.65
2011 5418424 417 95.20 36892 52.80
2012 5420514 448 112.41 36908 78.26
2013 5420601 71 19.06 36924 14.13
2014 5420894 399 87.30 36940 58.93
2015 5421854 432 101.61 36959 81.48
2016 5425967 440 109.25 36975 61.72
2017 5431186 627 249.17 36993 104.69
2018 5431230 334 61.44 37009 73.64
2019 5434881 384 80.08 37025 62.15
2020 5440626 483 132.60 37041 76.87
2021 5443542 467 121.56 37057 65.69
2022 5443675 408 90.57 37073 74.50
2023 5453430 391 82.35 37091 50.55
2024 5460473 440 109.25 37156 82.77
2025 5465750 120 23.58 37174 28.20
2026 5467634 368 72.93 37191 74.50
2027 5468983 497 142.37 37207 64.40
2028 5471989 412 92.93 37223 63.97
2029 5472752 398 85.63 37290 63.44
2030 5473680 496 144.49 37306 74.72
2031 5473702 280 48.67 37322 50.55
2032 5474947 359 69.86 37338 69.45
2033 5484075 432 101.61 37354 73.75
2034 5485870 481 129.57 37372 93.62
2035 5486389 399 87.30 37388 55.38
2036 5486449 71 19.06 37404 6.72
2037 5487175 323 58.48 37420 42.28
2038 5492265 368 72.93 37437 57.96
2039 5493088 335 61.77 37453 63.44
2040 5495821 467 121.56 37470 74.50
2041 5496745 344 64.67 37486 53.55
2042 5496837 344 64.67 37502 55.38
2043 5500411 480 130.21 37522 89.54
2044 5500586 319 57.64 37538 65.37
2045 5507700 368 72.93 37556 76.87
2046 5509688 391 82.35 37572 69.56
2047 5525193 448 112.41 37590 88.57
2048 5525756 307 54.48 37606 63.44
2049 5531790 467 121.56 37623 79.66
2050 5531881 312 55.68 37639 61.72
2051 5532643 376 76.43 37655 64.19
2052 5535892 387 81.05 37671 67.95
2053 5537670 275 47.73 37687 52.59
2054 5546371 348 65.64 37704 65.37
2055 5553527 284 49.41 37721 37.33
2056 5555221 440 109.25 37737 84.60
2057 5557205 327 59.28 37753 47.97
2058 5557292 415 95.00 37772 68.59
2059 5559585 376 76.43 37788 47.97
2060 5560486 67 18.51 37804 -9.07
2061 5560758 547 162.22 37820 79.87
2062 5561021 448 112.41 37836 86.32
2063 5561808 451 113.08 37852 76.76
2064 5562193 352 66.89 37868 67.30
2065 5564631 240 41.21 37884 19.61
2066 5564883 391 82.35 37900 49.90
2067 5566258 401 87.91 37916 55.38
2068 5566664 353 67.64 37932 60.86
2069 5569377 172 29.49 37948 31.86
2070 5573875 463 119.23 37965 86.00
2071 5574134 371 73.82 37981 74.07
2072 5574711 679 318.29 38000 133.05
2073 5576489 286 49.78 38018 34.54
2074 5576651 511 149.39 38034 68.81
2075 5581080 472 125.87 38051 84.49
2076 5582427 337 62.30 38068 59.25
2077 5587220 480 130.21 38085 78.58
2078 5587564 396 85.28 38101 52.80
2079 5593214 668 291.28 38118 127.57
2080 5604948 396 85.28 38139 72.03
2081 5605929 384 80.08 38156 75.68
2082 5609472 414 93.93 38172 51.84
2083 5609792 440 109.25 38236 76.01
2084 5609940 312 55.68 38252 40.23
2085 5611327 326 59.13 38268 37.98
2086 5612538 615 227.36 38287 115.75
2087 5617461 391 82.35 38303 52.80
2088 5619032 120 23.58 38319 1.88
2089 5620611 440 109.25 38335 57.96
2090 5620973 352 66.89 38352 71.17
2091 5622717 396 85.28 38368 55.38
2092 5623363 419 97.20 38432 68.59
2093 5624532 103 22.23 38448 6.18
2094 5636149 319 57.64 38467 62.15
2095 5641864 337 62.30 38483 63.97
2096 5646721 359 69.86 38500 52.59
2097 5652402 401 87.91 38516 71.17
2098 5656932 529 156.43 38532 89.22
2099 5658984 371 73.82 38548 71.17
2100 5664795 332 61.17 38567 56.99
2101 5664986 359 69.86 38583 63.44
2102 5665162 352 66.89 38599 45.07
2103 5668166 428 101.58 38616 86.32
2104 5668206 480 130.21 38632 94.38
2105 5669811 284 49.41 38648 32.18
2106 5670084 376 76.43 38664 58.93
2107 5671468 376 76.43 38680 65.69
2108 5673891 248 42.69 38698 24.23
2109 5677131 376 76.43 38714 76.01
2110 5678700 472 125.87 38730 85.35
2111 5678918 295 51.75 38746 57.96
2112 5683492 391 82.35 38762 61.72
2113 5683915 217 37.04 38778 37.01
2114 5685073 143 25.74 38797 24.44
2115 5687576 399 87.30 38813 72.46
2116 5688592 476 129.76 38829 68.81
2117 5688696 316 56.81 38845 55.38
2118 5688745 433 104.37 38861 73.75
2119 5689478 364 71.71 38877 56.24
2120 5692594 487 132.65 38893 89.22
2121 5697514 102 22.15 38910 6.72
2122 5700284 483 132.60 38927 68.06
2123 5701607 318 57.28 38943 38.62
2124 5702658 366 72.41 38959 47.97
2125 5703731 353 67.64 38975 65.69
2126 5703947 304 53.73 38991 52.80
2127 5706290 318 57.28 39007 31.86
2128 5706568 184 31.36 39026 20.90
2129 5706646 300 52.79 39042 36.37
2130 5707236 376 76.43 39058 63.44
2131 5707503 339 62.98 39074 60.86
2132 5712821 385 80.11 39090 68.92
2133 5713243 56 16.76 39106 -6.71
2134 5713743 224 38.29 39122 22.94
2135 5714428 327 59.28 39138 51.84
2136 5714671 480 130.21 39154 83.74
2137 5714694 287 50.23 39170 55.38
2138 5719190 248 42.69 39186 40.23
2139 5719991 463 119.23 39202 71.17
2140 5723558 352 66.89 39219 55.38
2141 5727081 455 117.03 39235 83.42
2142 5728443 396 85.28 39302 56.24
2143 5729231 508 144.95 39318 94.38
2144 5729581 384 80.08 39334 78.58
2145 5729823 422 97.97 39350 81.48
2146 5731945 499 141.24 39366 77.62
2147 5732471 480 130.21 39382 79.34
2148 5743166 307 54.48 39402 32.61
2149 5743691 415 95.00 39418 69.56
2150 5743782 376 76.43 39434 69.45
2151 5744453 432 101.61 39451 66.66
2152 5747981 254 43.77 39467 37.33
2153 5751407 352 66.89 39483 52.48
2154 5752536 371 73.82 39500 68.59
2155 5755151 440 109.25 39564 56.24
2156 5764540 414 93.93 39586 64.40
2157 5767696 472 125.87 39602 69.35
2158 5770596 145 25.96 39618 17.68
2159 5774291 369 73.42 39634 60.86
2160 5780232 327 59.28 39653 57.96
2161 5780828 289 50.47 39669 43.78
2162 5783032 335 61.77 39685 55.38
2163 5783275 403 88.99 39701 69.56
2164 5787676 430 101.41 39717 65.69
2165 5788354 348 65.64 39733 65.37
2166 5789422 339 62.98 39750 71.17
2167 5789882 527 155.96 39766 99.21
2168 5791085 371 73.82 39783 48.40
2169 5791818 327 59.28 39799 57.74
2170 5792151 415 95.00 39815 56.13
2171 5793817 432 101.61 39834 57.96
2172 5797273 184 31.36 39850 14.13
2173 5799167 305 53.88 39866 50.55
2174 5799879 412 92.93 39882 73.75
2175 5802145 376 76.43 39898 57.74
2176 5807968 344 64.67 39915 63.44
2177 5808375 494 141.37 39931 93.09
2178 5808961 448 112.41 39947 91.80
2179 5812608 304 53.73 39963 55.38
2180 5816438 287 50.23 39979 57.85
2181 5816840 344 64.67 39995 42.92
2182 5817807 348 65.64 40011 62.15
2183 5819513 415 95.00 40027 46.04
2184 5820850 376 76.43 40043 63.44
2185 5821322 319 57.64 40062 42.49
2186 5822789 487 132.65 40078 85.78
2187 5827628 391 82.35 40095 68.92
2188 5827816 419 97.20 40111 78.58
2189 5829253 319 57.64 40127 42.49
2190 5831273 415 95.00 40143 69.45
2191 5832910 511 149.39 40159 88.68
2192 5834006 430 101.41 40175 55.17
2193 5835707 307 54.48 40192 45.07
2194 5837195 415 95.00 40209 86.32
2195 5845062 112 22.94 40226 6.72
2196 5853386 359 69.86 40243 48.94
2197 5854828 103 22.23 40259 -4.24
2198 5857237 323 58.48 40275 52.80
2199 5861299 455 117.03 40294 87.29
2200 5865837 536 160.18 40358 91.80
2201 5866725 489 138.11 40375 91.80
2202 5870718 352 66.89 40392 51.84
2203 5882486 384 80.08 40408 50.55
2204 5888580 344 64.67 40424 37.33
2205 5889197 467 121.56 40440 81.48
2206 5896734 291 50.97 40457 47.97
2207 5897419 376 76.43 40474 76.01
2208 5899934 319 57.64 40490 40.34
2209 5904384 384 80.08 40507 75.68
2210 5906792 432 101.61 40523 47.97
2211 5912678 284 49.41 40540 54.09
2212 5916210 496 144.49 40556 73.32
2213 5919646 639 249.88 40577 117.26
2214 5924918 348 65.64 40594 57.96
2215 5926044 385 80.11 40610 67.30
2216 5933192 352 66.89 40629 65.37
2217 5934932 344 64.67 40645 60.86
2218 5938861 497 142.37 40709 68.81
2219 5940192 344 64.67 40725 55.38
2220 5945191 312 55.68 40743 31.21
2221 5945374 252 43.42 40759 31.96
2222 5946055 287 50.23 40775 29.92
2223 5947806 444 109.09 40791 76.01
2224 5951099 135 24.92 40807 22.19
2225 5954052 409 91.12 40825 47.97
2226 5954152 670 272.62 40841 119.62
2227 5955579 334 61.44 40860 51.30
2228 5957848 207 35.26 40877 45.07
2229 5960772 316 56.81 40893 43.35
2230 5961163 622 244.71 40909 112.42
2231 5961414 364 71.71 40925 79.44
2232 5961879 312 55.68 40941 30.67
2233 5962383 399 87.30 40957 65.69
2234 5964514 385 80.11 40973 67.30
2235 5970414 334 61.44 40993 62.15
2236 5975759 558 172.78 41009 82.24
2237 5980487 371 73.82 41025 51.84
2238 5982003 252 43.42 41041 20.47
2239 5983795 316 56.81 41058 30.67
2240 5985006 352 66.89 41074 32.18
2241 5987668 364 71.71 41094 60.86
2242 5993609 369 73.42 41111 54.09
2243 5997628 166 28.62 41129 24.44
2244 6005760 368 72.93 41145 60.21
2245 6008816 483 132.60 41162 82.24
2246 6010744 120 23.58 41180 9.30
2247 6010966 248 42.69 41196 28.31
2248 6011423 508 144.95 41212 74.07
2249 6014186 287 50.23 41228 43.13
2250 6028628 560 175.34 41246 105.65
2251 6033092 344 64.67 41263 50.55
2252 6034649 348 65.64 41279 59.25
2253 6041010 108 22.63 41298 -4.88
2254 6043522 415 95.00 41314 76.01
2255 6046268 472 125.87 41335 83.42
2256 6054220 268 46.26 41351 41.52
2257 6056366 323 58.48 41367 40.23
2258 6056850 295 51.75 41383 48.83
2259 6059008 432 101.61 41447 68.70
2260 6059553 444 109.09 41463 62.15
2261 6063525 359 69.86 41479 46.04
2262 6068307 304 53.73 41495 50.12
2263 6068956 344 64.67 41511 59.25
2264 6069946 547 162.22 41527 82.77
2265 6071755 227 38.83 41543 22.19
2266 6072277 359 69.86 41559 42.17
2267 6075104 540 166.11 41575 94.38
2268 6076939 492 134.92 41591 86.32
2269 6081161 156 27.28 41610 11.88
2270 6082251 444 109.09 41627 82.77
2271 6084267 408 90.57 41644 61.72
