##########################################################################################
### Pulsi_number Aeg[ms] ADC[0-1023] SiPM[mV] Surnud_aeg[ms] Temperatuur[C]
##########################################################################################
Olen Slave nimega Sassu
1 5956 335 61.77 2 51.84
2 9551 271 46.93 16 40.99
3 10225 423 97.36 33 86.32
4 29589 304 53.73 49 38.09
5 31742 423 97.36 65 65.59
6 33131 415 95.00 81 81.48
7 33273 319 57.64 97 60.86
8 36394 487 132.65 114 80.84
9 48734 352 66.89 132 55.38
10 58323 102 22.15 153 2.53
11 62457 344 64.67 169 55.38
12 64554 486 135.98 186 81.48
13 67884 254 43.77 205 54.09
14 71789 396 85.28 222 63.65
15 76925 408 90.57 238 65.69
16 79539 352 66.89 255 45.07
17 82273 385 80.11 271 64.19
18 83678 110 22.78 287 -6.49
19 94520 414 93.93 304 76.01
20 98361 476 129.76 321 73.75
21 102346 344 64.67 338 44.85
22 108680 88 20.96 354 2.10
23 109110 359 69.86 370 50.55
24 109975 352 66.89 386 49.04
25 111565 188 32.01 402 11.88
26 111626 368 72.93 418 47.32
27 112289 307 54.48 437 52.80
28 112941 284 49.41 454 41.52
29 119745 560 175.34 470 85.03
30 132519 369 73.42 486 51.30
31 132994 323 58.48 502 55.27
32 133868 231 39.55 518 24.23
33 135300 415 95.00 534 57.96
34 144139 391 82.35 551 72.03
35 145597 275 47.73 568 32.18
36 145915 145 25.96 584 14.13
37 146119 271 46.93 600 22.19
38 146608 496 144.49 616 83.63
39 147725 399 87.30 633 67.30
40 153797 307 54.48 650 47.97
41 169789 248 42.69 668 52.80
42 170138 319 57.64 684 33.04
43 170625 398 85.63 703 65.69
44 178615 319 57.64 720 51.30
45 184188 415 95.00 785 71.17
46 185661 177 30.25 801 20.90
47 187243 326 59.13 817 53.66
48 189603 465 122.12 833 81.48
49 195005 304 53.73 849 50.55
50 196148 352 66.89 865 50.55
51 197007 423 97.36 881 71.17
52 200279 344 64.67 945 35.62
53 202829 423 97.36 962 89.22
54 207788 371 73.82 979 78.58
55 212243 236 40.44 995 28.20
56 217064 408 90.57 1012 60.86
57 217128 240 41.21 1028 37.76
58 221196 401 87.91 1044 66.45
59 224891 76 19.69 1064 17.14
60 226137 319 57.64 1080 52.48
61 226464 307 54.48 1096 37.23
62 228347 433 104.37 1113 90.19
63 229066 327 59.28 1129 46.04
64 232861 355 68.30 1145 47.97
65 236086 344 64.67 1161 56.99
66 236623 391 82.35 1177 62.15
67 240295 359 69.86 1193 60.86
68 241152 289 50.47 1209 32.18
69 242857 399 87.30 1227 81.48
70 246392 344 64.67 1243 50.55
71 249573 305 53.88 1261 60.86
72 253255 176 30.09 1277 9.30
73 255784 99 21.91 1294 20.47
74 256270 60 17.43 1310 -11.33
75 260546 334 61.44 1329 57.96
76 260638 472 125.87 1345 81.48
77 261141 312 55.68 1361 41.52
78 262080 414 93.93 1377 74.50
79 266841 415 95.00 1393 47.97
80 269938 399 87.30 1410 79.55
81 272387 440 109.25 1426 91.80
82 279638 355 68.30 1442 57.96
83 281788 419 97.20 1459 60.86
84 285019 230 39.39 1476 16.71
85 287681 366 72.41 1492 65.59
86 294465 364 71.71 1508 63.44
87 294813 444 109.09 1524 81.48
88 294939 440 109.25 1540 86.32
89 298309 231 39.55 1557 30.67
90 301389 352 66.89 1574 74.50
91 304497 496 144.49 1594 89.22
92 306159 487 132.65 1610 87.82
93 308303 327 59.28 1628 48.08
94 309245 319 57.64 1644 68.16
95 313555 369 73.42 1660 74.50
96 313736 483 132.60 1676 91.80
97 326702 307 54.48 1695 37.55
98 332012 280 48.67 1713 40.23
99 332359 472 125.87 1729 81.48
100 347483 371 73.82 1751 78.58
101 347806 302 53.30 1767 57.96
102 349617 355 68.30 1783 55.38
103 360930 480 130.21 1801 69.56
104 361712 376 76.43 1817 56.13
105 362237 408 90.57 1833 51.84
106 370543 352 66.89 1853 34.76
107 370718 275 47.73 1872 40.23
108 371315 344 64.67 1938 68.59
109 371417 399 87.30 1954 53.66
110 375594 295 51.75 1971 64.19
111 376988 307 54.48 2036 63.44
112 377607 51 15.86 2052 10.59
113 378640 401 87.91 2068 63.44
114 378918 337 62.30 2085 68.59
115 379802 396 85.28 2101 51.19
116 380292 316 56.81 2117 35.29
117 382109 225 38.48 2133 42.17
118 385346 440 109.25 2149 76.01
119 386298 344 64.67 2165 48.72
120 388410 449 112.05 2181 66.66
121 389033 711 380.66 2197 114.68
122 392989 332 61.17 2216 51.30
123 394095 295 51.75 2232 55.27
124 396740 255 43.96 2249 14.02
125 407510 480 130.21 2269 69.45
126 408985 376 76.43 2286 68.06
127 411013 195 33.17 2302 37.76
128 411701 332 61.17 2318 55.38
129 430719 732 451.17 2339 143.36
130 432141 368 72.93 2356 58.93
131 433774 79 20.03 2372 19.18
132 437556 259 44.69 2390 48.83
133 438512 344 64.67 2406 43.78
134 440347 472 125.87 2422 78.26
135 441795 478 129.43 2439 91.80
136 445135 312 55.68 2457 61.72
137 452745 332 61.17 2473 50.55
138 461820 487 132.65 2492 79.44
139 462901 295 51.75 2508 60.86
140 468588 371 73.82 2525 74.50
141 474014 444 109.09 2542 74.72
142 475664 408 90.57 2558 83.42
143 480574 327 59.28 2574 32.18
144 480947 414 93.93 2590 67.30
145 487942 415 95.00 2606 78.58
146 489374 504 143.61 2622 82.77
147 489801 526 158.17 2638 104.69
148 491108 401 87.91 2654 59.25
149 491130 504 143.61 2670 89.22
150 493190 263 45.37 2686 55.38
151 495016 332 61.17 2702 50.55
152 498793 408 90.57 2718 65.69
153 501952 158 27.53 2737 3.82
154 506101 319 57.64 2753 43.35
155 508894 513 148.53 2769 86.32
156 509098 312 55.68 2785 63.44
157 509237 352 66.89 2801 62.15
158 516883 415 95.00 2817 62.15
159 517422 307 54.48 2833 56.24
160 520366 519 154.30 2850 100.18
161 525103 332 61.17 2866 50.55
162 528167 92 21.32 2882 -5.63
163 528268 184 31.36 2898 2.53
164 530379 352 66.89 2915 58.17
165 536931 355 68.30 2931 52.59
166 548023 399 87.30 2950 54.09
167 550802 81 20.25 2968 27.34
168 556665 368 72.93 2986 73.75
169 560329 316 56.81 3005 31.21
170 560471 67 18.51 3070 11.34
171 562481 368 72.93 3134 62.79
172 564171 403 88.99 3151 76.01
173 567631 444 109.09 3168 81.48
174 569011 371 73.82 3184 60.86
175 570794 432 101.61 3201 83.53
176 581256 163 28.20 3218 33.04
177 581619 527 155.96 3234 82.77
178 582985 472 125.87 3250 76.01
179 585070 305 53.88 3266 45.07
180 591600 345 64.98 3284 65.69
181 592032 332 61.17 3300 40.23
182 595042 396 85.28 3317 63.22
183 595441 638 261.42 3333 120.80
184 604886 353 67.64 3353 55.38
185 606409 366 72.41 3369 72.03
186 620424 335 61.77 3387 47.75
187 620628 364 71.71 3404 57.64
188 623238 481 129.57 3421 100.50
189 629104 423 97.36 3437 80.41
190 629482 472 125.87 3453 91.80
191 630067 408 90.57 3469 65.69
192 632083 88 20.96 3485 14.67
193 632225 286 49.78 3502 48.83
194 639105 384 80.08 3518 63.01
195 639897 110 22.78 3534 16.39
196 647733 385 80.11 3553 56.99
197 648195 327 59.28 3569 37.33
198 650070 344 64.67 3585 67.30
199 651614 480 130.21 3601 89.65
200 652232 376 76.43 3615 43.56
201 654874 305 53.88 3632 49.26
202 655157 321 58.01 3648 52.48
203 663945 339 62.98 3664 66.66
204 665664 380 78.12 3680 46.68
205 667710 472 125.87 3697 66.66
206 677370 334 61.44 3715 45.93
207 684223 323 58.48 3733 31.86
208 684468 371 73.82 3749 55.38
209 685202 435 104.92 3765 76.01
210 686368 499 141.24 3781 86.32
211 688920 575 187.30 3797 114.46
212 689397 295 51.75 3813 41.52
213 691875 216 36.85 3829 27.34
214 694390 472 125.87 3847 76.76
215 695938 335 61.77 3866 51.30
216 706504 536 160.18 3884 111.56
217 706865 222 37.96 3900 29.92
218 714403 305 53.88 3917 51.84
219 715434 408 90.57 3933 48.94
220 715559 399 87.30 3949 65.69
221 721328 448 112.41 3966 75.79
222 722105 127 24.18 3982 6.72
223 723278 480 130.21 3998 69.45
224 726668 359 69.86 4016 74.50
225 727591 880 1109.11 4032 145.94
226 728185 355 68.30 4048 89.22
227 731123 364 71.71 4064 68.81
228 733229 399 87.30 4081 74.50
229 734047 377 76.28 4098 63.44
230 734676 568 189.84 4165 106.94
231 747872 398 85.63 4183 58.93
232 750944 255 43.96 4199 27.34
233 753606 344 64.67 4216 60.86
234 754862 414 93.93 4280 56.13
235 756650 368 72.93 4296 58.93
236 763625 384 80.08 4312 69.56
237 764756 408 90.57 4329 72.03
238 768919 67 18.51 4346 23.15
239 772721 113 23.02 4362 -11.76
240 773224 355 68.30 4378 42.17
241 777211 476 129.76 4394 82.77
242 778202 536 160.18 4410 97.71
243 779310 344 64.67 4426 44.85
244 786857 312 55.68 4444 57.96
245 787338 463 119.23 4460 71.17
246 807858 487 132.65 4484 94.70
247 810890 321 58.01 4500 40.23
248 812244 417 95.20 4516 79.34
249 815804 76 19.69 4532 0.92
250 818640 449 112.05 4548 60.86
251 822816 457 118.95 4564 86.32
252 832628 70 18.93 4582 2.10
253 834048 275 47.73 4598 45.07
254 834721 547 162.22 4614 101.46
255 838682 551 164.56 4631 78.58
256 839336 312 55.68 4647 40.99
257 841416 384 80.08 4663 42.49
258 843748 344 64.67 4679 69.45
259 845452 435 104.92 4695 60.86
260 848798 83 20.46 4711 19.61
261 850031 403 88.99 4730 67.30
262 854601 238 40.82 4748 45.07
263 858249 316 56.81 4765 48.83
264 858843 348 65.64 4781 60.86
265 860932 487 132.65 4798 78.05
266 870774 355 68.30 4814 47.97
267 870811 352 66.89 4830 55.06
268 877609 472 125.87 4849 91.80
269 877693 414 93.93 4865 84.60
270 882855 124 23.92 4881 19.61
271 886511 428 101.58 4899 55.38
272 892307 391 82.35 4915 68.59
273 893029 487 132.65 4931 74.50
274 893470 472 125.87 4947 91.15
275 899054 369 73.42 4963 48.94
276 903124 399 87.30 4985 74.50
277 905867 319 57.64 5001 64.19
278 907561 518 151.06 5017 91.80
279 922499 140 25.42 5034 -2.63
280 924376 307 54.48 5051 41.52
281 932584 312 55.68 5069 38.09
282 943435 371 73.82 5087 58.82
283 944105 332 61.17 5103 40.23
284 956005 231 39.55 5120 22.19
285 957153 480 130.21 5136 78.80
286 958944 419 97.20 5152 78.37
287 958971 158 27.53 5168 27.34
288 962227 448 112.41 5184 78.05
289 966662 448 112.41 5203 99.21
290 971028 398 85.63 5267 43.35
291 980038 355 68.30 5287 42.49
292 987478 423 97.36 5306 51.30
293 988119 83 20.46 5322 11.88
294 990874 337 62.30 5338 55.27
295 992170 280 48.67 5354 27.34
296 993717 280 48.67 5371 31.53
297 996411 327 59.28 5436 51.30
298 998250 295 51.75 5452 52.59
299 999827 51 15.86 5468 -3.92
300 1000300 398 85.63 5484 58.71
301 1001053 332 61.17 5500 57.74
302 1002064 302 53.30 5516 46.68
303 1006302 455 117.03 5532 73.75
304 1013122 352 66.89 5549 52.80
305 1013354 209 35.61 5565 31.21
306 1017583 371 73.82 5583 45.07
307 1018821 323 58.48 5603 48.08
308 1028387 364 71.71 5620 52.80
309 1028557 428 101.58 5636 57.64
310 1034064 295 51.75 5653 55.06
311 1034580 376 76.43 5669 67.30
312 1037466 467 121.56 5686 74.72
313 1039030 304 53.73 5702 50.55
314 1055412 376 76.43 5723 57.64
315 1060709 352 66.89 5739 47.97
316 1062924 348 65.64 5755 47.97
317 1072320 423 97.36 5771 60.86
318 1073775 423 97.36 5787 82.77
319 1076653 192 32.67 5803 -1.02
320 1077011 595 212.63 5819 102.11
321 1077635 227 38.83 5835 19.61
322 1081075 558 172.78 5856 113.07
323 1083659 387 81.05 5874 73.75
324 1084363 316 56.81 5890 61.72
325 1090907 376 76.43 5906 47.97
326 1092332 327 59.28 5922 52.80
327 1092996 417 95.20 5938 57.96
328 1093411 71 19.06 5954 9.73
329 1096401 352 66.89 5970 51.30
330 1098010 304 53.73 5986 31.86
331 1099216 359 69.86 6002 49.90
332 1099881 371 73.82 6019 63.44
333 1103267 135 24.92 6038 -0.26
334 1106860 451 113.08 6054 71.17
335 1109941 350 66.46 6070 63.65
336 1110541 323 58.48 6086 38.19
337 1113527 387 81.05 6105 51.30
338 1116088 432 101.61 6122 66.66
339 1118362 305 53.88 6138 35.62
340 1119794 448 112.41 6154 73.75
341 1125988 387 81.05 6170 48.29
342 1129693 316 56.81 6189 47.32
343 1133635 385 80.11 6206 63.01
344 1140070 376 76.43 6223 71.17
345 1140706 92 21.32 6240 3.82
346 1147027 387 81.05 6257 50.55
347 1153145 423 97.36 6274 63.97
348 1155132 79 20.03 6290 12.84
349 1157131 499 141.24 6355 74.72
350 1164068 387 81.05 6371 60.86
351 1164968 396 85.28 6387 73.96
352 1167224 304 53.73 6407 61.72
353 1169183 364 71.71 6424 58.39
354 1170376 368 72.93 6441 40.23
355 1170902 513 148.53 6457 82.77
356 1179973 476 129.76 6474 73.75
357 1182830 62 17.75 6491 -6.71
358 1185885 568 189.84 6508 86.32
359 1187637 496 144.49 6524 82.77
360 1190427 312 55.68 6588 33.04
361 1191334 355 68.30 6604 46.04
362 1191953 255 43.96 6620 42.49
363 1194296 440 109.25 6637 94.70
364 1199140 384 80.08 6654 74.50
365 1203302 63 17.91 6671 -0.05
366 1205863 551 164.56 6688 91.80
367 1207151 319 57.64 6707 46.36
368 1210750 304 53.73 6723 60.86
369 1214203 423 97.36 6741 70.10
370 1216173 480 130.21 6759 87.29
371 1217999 305 53.88 6776 42.49
372 1220122 231 39.55 6793 42.49
373 1221814 319 57.64 6809 37.55
374 1223112 295 51.75 6825 42.49
375 1226808 259 44.69 6842 44.96
376 1228385 307 54.48 6858 49.90
377 1232382 323 58.48 6874 51.84
378 1235454 327 59.28 6890 34.65
379 1237571 430 101.41 6907 98.99
380 1241815 99 21.91 6924 2.10
381 1246154 131 24.54 6942 30.67
382 1250416 280 48.67 6961 28.85
383 1250713 415 95.00 6977 57.96
384 1251631 448 112.41 6993 83.74
385 1253293 316 56.81 7009 33.04
386 1255213 179 30.55 7025 33.47
387 1256701 304 53.73 7041 47.32
388 1258455 444 109.09 7057 79.34
389 1262726 352 66.89 7073 52.48
390 1264135 547 162.22 7091 105.01
391 1265063 486 135.98 7107 66.98
392 1266732 384 80.08 7123 75.90
393 1269878 316 56.81 7139 43.35
394 1271067 307 54.48 7155 37.33
395 1272193 332 61.17 7171 60.86
396 1272347 403 88.99 7187 72.03
397 1275441 399 87.30 7206 52.59
398 1277275 440 109.25 7222 83.74
399 1279267 472 125.87 7238 76.01
400 1285275 262 45.24 7255 55.38
401 1287707 312 55.68 7271 37.33
402 1290711 240 41.21 7288 40.23
403 1292228 220 37.58 7304 35.62
404 1294736 384 80.08 7321 60.86
405 1296041 384 80.08 7338 69.45
406 1300447 428 101.58 7355 63.44
407 1303442 624 242.54 7373 128.64
408 1309495 88 20.96 7438 1.67
409 1311540 268 46.26 7455 40.23
410 1315306 408 90.57 7471 68.59
411 1315942 304 53.73 7487 58.82
412 1319504 355 68.30 7507 68.59
413 1321780 355 68.30 7523 57.96
414 1323404 511 149.39 7539 99.21
415 1325878 655 252.34 7555 128.43
416 1326722 255 43.96 7572 71.17
417 1327310 339 62.98 7588 63.76
418 1333369 399 87.30 7606 76.22
419 1340469 284 49.41 7625 40.23
420 1344734 414 93.93 7641 57.64
421 1349383 385 80.11 7660 76.01
422 1349493 510 148.47 7676 98.89
423 1352769 305 53.88 7740 47.97
424 1364202 152 26.78 7759 3.82
425 1365642 403 88.99 7775 69.02
426 1367977 348 65.64 7792 52.80
427 1368128 359 69.86 7811 57.96
428 1372811 583 201.26 7828 83.74
429 1374866 364 71.71 7846 81.48
430 1378767 300 52.79 7864 59.79
431 1379648 344 64.67 7880 63.44
432 1381108 399 87.30 7896 68.59
433 1383313 304 53.73 7913 50.55
434 1383594 319 57.64 7929 52.48
435 1386225 396 85.28 7945 68.59
436 1391687 368 72.93 7961 46.36
437 1400338 147 26.19 7979 20.58
438 1401022 344 64.67 7995 53.23
439 1404918 88 20.96 8011 -10.58
440 1405500 391 82.35 8027 42.49
441 1406441 408 90.57 8043 69.35
442 1406500 156 27.28 8062 26.05
443 1414554 359 69.86 8079 42.49
444 1423624 408 90.57 8096 69.45
445 1424183 307 54.48 8112 56.24
446 1426435 305 53.88 8128 47.32
447 1427511 224 38.29 8144 34.65
448 1427931 385 80.11 8160 63.44
449 1429458 390 82.70 8176 40.23
450 1429855 304 53.73 8192 48.83
451 1433221 486 135.98 8209 78.58
452 1442901 359 69.86 8227 57.96
453 1444349 440 109.25 8243 64.19
454 1447113 355 68.30 8260 41.52
455 1452979 304 53.73 8277 56.99
456 1459482 435 104.92 8295 73.75
457 1468533 391 82.35 8315 42.17
458 1468820 542 168.67 8331 83.53
459 1469189 440 109.25 8347 76.01
460 1470894 319 57.64 8363 37.33
461 1485087 335 61.77 8380 58.82
462 1486341 399 87.30 8396 60.86
463 1493232 344 64.67 8415 42.49
464 1501585 316 56.81 8433 63.44
465 1502514 243 41.74 8449 36.26
466 1503129 368 72.93 8465 50.55
467 1505966 312 55.68 8529 52.80
468 1509156 398 85.63 8546 77.62
469 1509517 391 82.35 8562 74.72
470 1516545 319 57.64 8579 40.23
471 1519526 344 64.67 8596 41.20
472 1519723 204 34.73 8615 26.70
473 1521538 92 21.32 8631 7.04
474 1524689 295 51.75 8648 57.96
475 1528267 353 67.64 8666 57.74
476 1539940 415 95.00 8683 62.90
477 1546568 355 68.30 8699 50.55
478 1546598 457 118.95 8715 76.22
479 1547694 312 55.68 8731 62.15
480 1548672 423 97.36 8747 81.48
481 1550217 76 19.69 8763 -12.94
482 1551559 92 21.32 8780 12.30
483 1555856 353 67.64 8796 50.55
484 1562941 312 55.68 8812 37.33
485 1569917 376 76.43 8830 76.87
486 1570586 352 66.89 8894 39.16
487 1571582 364 71.71 8913 64.73
488 1571739 423 97.36 8929 76.87
489 1572764 540 166.11 8945 106.84
490 1572907 199 33.86 8961 46.68
491 1583058 480 130.21 8977 62.90
492 1585470 71 19.06 8993 10.59
493 1590054 387 81.05 9011 45.07
494 1590372 403 88.99 9027 68.59
495 1593166 433 104.37 9043 64.40
496 1594043 646 271.78 9059 109.84
497 1597080 408 90.57 9075 53.66
498 1599176 444 109.09 9091 69.56
499 1600145 368 72.93 9107 72.03
500 1606173 323 58.48 9123 37.33
501 1608811 391 82.35 9139 49.90
502 1609193 480 130.21 9158 69.02
503 1609424 398 85.63 9175 73.75
504 1617907 335 61.77 9195 63.01
505 1619016 319 57.64 9211 60.86
506 1623393 463 119.23 9228 83.42
507 1624858 391 82.35 9244 48.29
508 1625730 240 41.21 9260 13.81
509 1630783 207 35.26 9280 38.62
510 1633566 319 57.64 9298 52.80
511 1635653 380 78.12 9314 45.07
512 1635869 387 81.05 9330 63.44
513 1640870 419 97.20 9348 73.75
514 1643932 271 46.93 9364 50.55
515 1651151 327 59.28 9383 63.44
516 1654584 318 57.28 9399 32.18
517 1664238 302 53.30 9421 52.80
518 1664671 414 93.93 9437 72.03
519 1665193 352 66.89 9453 68.38
520 1668148 280 48.67 9470 44.75
521 1671095 344 64.67 9486 41.20
522 1674680 295 51.75 9502 51.84
523 1680156 273 47.25 9518 30.67
524 1684223 143 25.74 9535 6.72
525 1686761 455 117.03 9552 85.03
526 1687146 359 69.86 9616 46.89
527 1688428 352 66.89 9633 68.59
528 1692275 391 82.35 9650 76.01
529 1692681 385 80.11 9666 48.94
530 1693699 302 53.30 9682 37.33
531 1694499 480 130.21 9698 64.19
532 1703413 430 101.41 9719 79.55
533 1703489 524 150.73 9735 100.50
534 1710195 327 59.28 9752 45.07
535 1711994 408 90.57 9768 63.44
536 1714399 387 81.05 9784 60.86
537 1719863 376 76.43 9801 70.96
538 1722317 419 97.20 9818 76.01
539 1725573 352 66.89 9834 63.44
540 1727087 440 109.25 9850 87.29
541 1728737 417 95.20 9866 78.58
542 1728877 472 125.87 9882 92.66
543 1729856 432 101.61 9898 90.08
544 1730596 304 53.73 9914 57.96
545 1742258 270 46.71 9932 13.92
546 1743816 124 23.92 9948 -2.63
547 1748079 334 61.44 9970 60.00
548 1753442 368 72.93 9986 42.49
549 1756833 463 119.23 10051 71.17
550 1757788 348 65.64 10067 69.02
551 1760266 312 55.68 10085 36.37
552 1763757 433 104.37 10101 75.68
553 1764390 391 82.35 10117 76.01
554 1769392 419 97.20 10136 71.17
555 1769867 390 82.70 10152 74.29
556 1771517 359 69.86 10169 63.44
557 1780012 408 90.57 10187 47.32
558 1780655 199 33.86 10203 31.86
559 1784104 385 80.11 10219 70.74
560 1785093 433 104.37 10235 69.45
561 1788320 238 40.82 10255 42.28
562 1797006 88 20.96 10272 6.72
563 1797908 391 82.35 10288 50.55
564 1801245 481 129.57 10304 69.45
565 1801951 455 117.03 10320 86.32
566 1802073 348 65.64 10336 70.10
567 1805037 319 57.64 10352 33.57
568 1807896 483 132.60 10369 76.65
569 1811221 364 71.71 10385 69.02
570 1815885 384 80.08 10401 64.40
571 1817520 295 51.75 10418 37.01
572 1836749 590 200.72 10439 102.97
573 1837604 483 132.60 10456 92.66
574 1839144 467 121.56 10473 74.29
575 1839604 376 76.43 10490 66.66
576 1843910 408 90.57 10509 72.03
577 1847749 327 59.28 10525 56.24
578 1848265 399 87.30 10542 81.48
579 1851133 448 112.41 10558 76.01
580 1852031 134 24.82 10574 29.92
581 1856028 287 50.23 10591 54.09
582 1857276 478 129.43 10607 76.01
583 1859610 403 88.99 10623 62.15
584 1864569 432 101.61 10640 88.57
585 1867905 412 92.93 10704 68.59
586 1875519 339 62.98 10721 43.78
587 1881141 207 35.26 10737 1.24
588 1881592 295 51.75 10753 35.83
589 1883037 449 112.05 10769 62.15
590 1885424 472 125.87 10786 74.50
591 1891185 540 166.11 10800 100.18
592 1894940 355 68.30 10816 77.62
593 1896322 518 151.06 10832 90.08
594 1897996 316 56.81 10848 46.68
595 1899968 83 20.46 10865 8.12
596 1905923 334 61.44 10881 65.69
597 1914718 579 187.32 10901 103.40
598 1915538 465 122.12 10917 99.21
599 1916453 387 81.05 10933 81.48
600 1919063 323 58.48 10949 47.97
601 1919167 371 73.82 10965 60.86
602 1920535 335 61.77 10982 68.59
603 1922823 295 51.75 10998 43.35
604 1929112 327 59.28 11014 32.18
605 1929351 344 64.67 11033 52.59
606 1933539 385 80.11 11049 55.38
607 1935865 448 112.41 11065 61.72
608 1937071 422 97.97 11081 71.17
609 1938511 231 39.55 11097 32.18
610 1940730 268 46.26 11113 41.52
611 1941074 391 82.35 11129 65.69
612 1942975 387 81.05 11193 55.38
613 1943016 387 81.05 11209 66.66
614 1958617 199 33.86 11225 22.19
615 1959432 348 65.64 11241 57.85
616 1962320 483 132.60 11257 95.13
617 1964502 371 73.82 11275 68.59
618 1964837 376 76.43 11291 72.03
619 1968479 412 92.93 11307 53.45
620 1969417 312 55.68 11326 43.24
621 1981534 384 80.08 11344 66.55
622 1983763 163 28.20 11360 27.34
623 1989419 368 72.93 11377 61.72
624 1990364 448 112.41 11393 84.81
625 1996428 316 56.81 11410 38.62
626 2003565 335 61.77 11428 47.54
627 2008225 156 27.28 11446 9.30
628 2017465 199 33.86 11463 23.15
629 2019243 366 72.41 11479 55.38
630 2022841 327 59.28 11495 40.23
631 2033134 304 53.73 11512 47.97
632 2033879 295 51.75 11528 53.66
633 2041317 396 85.28 11545 76.01
634 2049138 286 49.78 11566 24.44
635 2051499 352 66.89 11582 34.43
636 2054300 398 85.63 11598 60.86
637 2057020 415 95.00 11615 55.06
638 2057699 428 101.58 11631 78.26
639 2067287 415 95.00 11648 60.86
640 2068930 291 50.97 11666 62.90
641 2073748 414 93.93 11682 58.60
642 2076744 465 122.12 11699 68.49
643 2077865 465 122.12 11715 86.00
644 2079132 583 201.26 11731 89.22
645 2084809 280 48.67 11797 32.18
646 2085563 332 61.17 11813 53.66
647 2086508 60 17.43 11829 11.88
648 2090099 312 55.68 11846 48.83
649 2097947 415 95.00 11867 61.72
650 2106571 412 92.93 11887 85.03
651 2110970 391 82.35 11904 74.50
652 2117242 78 19.92 11920 14.78
653 2118299 368 72.93 11936 63.44
654 2118791 335 61.77 11952 60.86
655 2120238 344 64.67 11968 50.55
656 2121622 134 24.82 11984 10.16
657 2122193 496 144.49 12001 90.94
658 2127814 280 48.67 12018 44.96
659 2129440 376 76.43 12034 55.27
660 2137987 319 57.64 12052 47.97
661 2139995 348 65.64 12068 60.86
662 2142161 352 66.89 12084 55.38
663 2144123 376 76.43 12105 65.59
664 2146776 255 43.96 12122 28.31
665 2149013 348 65.64 12139 52.80
666 2156445 399 87.30 12156 58.39
667 2158187 300 52.79 12173 42.49
668 2159131 412 92.93 12189 75.68
669 2159981 435 104.92 12205 73.75
670 2162012 472 125.87 12221 83.42
671 2162404 467 121.56 12237 91.80
672 2162625 167 28.76 12253 37.33
673 2171836 172 29.49 12274 27.34
674 2178448 103 22.23 12291 -13.80
675 2179846 286 49.78 12355 45.07
676 2180019 451 113.08 12371 77.08
677 2184582 60 17.43 12387 -9.39
678 2184775 316 56.81 12406 31.21
679 2189703 287 50.23 12422 32.61
680 2190635 368 72.93 12438 47.32
681 2198836 359 69.86 12454 46.04
682 2199978 337 62.30 12470 50.55
683 2206269 255 43.96 12488 37.55
684 2206682 287 50.23 12505 50.55
685 2207822 240 41.21 12522 42.28
686 2210484 263 45.37 12540 24.44
687 2210748 368 72.93 12556 55.38
688 2219699 304 53.73 12573 37.01
689 2221803 353 67.64 12589 48.72
690 2225608 323 58.48 12606 40.99
691 2226529 295 51.75 12622 37.33
692 2237567 408 90.57 12641 72.03
693 2240127 432 101.61 12655 52.80
694 2245620 295 51.75 12671 52.70
695 2247773 440 109.25 12687 52.48
696 2249059 312 55.68 12703 46.68
697 2255842 355 68.30 12721 66.66
698 2258420 384 80.08 12737 67.20
699 2261659 408 90.57 12754 63.44
700 2270275 463 119.23 12771 80.41
701 2275552 455 117.03 12787 82.24
702 2277644 435 104.92 12803 79.87
703 2280046 211 35.96 12819 32.18
704 2286751 444 109.09 12838 83.74
705 2288994 224 38.29 12902 15.74
706 2291218 417 95.20 12919 67.30
707 2291291 352 66.89 12938 62.90
708 2296938 344 64.67 12955 45.07
709 2298148 412 92.93 12971 68.59
710 2300107 432 101.61 12988 96.09
711 2303275 319 57.64 13004 60.86
712 2305363 483 132.60 13020 86.32
713 2310164 332 61.17 13037 67.30
714 2324405 112 22.94 13055 0.27
715 2326303 319 57.64 13071 55.27
716 2333233 376 76.43 13088 72.03
717 2337028 384 80.08 13106 54.09
718 2337933 391 82.35 13122 56.99
719 2338218 344 64.67 13138 60.86
720 2339239 359 69.86 13154 47.97
721 2339281 143 25.74 13170 17.46
722 2339698 792 615.27 13189 138.74
723 2341979 440 109.25 13205 68.92
724 2344727 327 59.28 13221 68.70
725 2347986 323 58.48 13237 37.76
726 2352373 332 61.17 13254 48.72
727 2352917 350 66.46 13270 60.21
728 2360424 558 172.78 13287 98.24
729 2361590 174 29.79 13303 22.51
730 2364190 273 47.25 13319 34.76
731 2365977 560 175.34 13335 99.42
732 2366917 430 101.41 13351 74.50
733 2367995 423 97.36 13367 62.90
734 2375988 350 66.46 13384 52.59
735 2382303 368 72.93 13402 62.15
736 2383369 335 61.77 13421 53.34
737 2387824 327 59.28 13437 47.97
738 2393058 483 132.60 13502 64.40
739 2400499 560 175.34 13521 109.84
740 2403302 384 80.08 13537 84.60
741 2403459 415 95.00 13553 57.96
742 2408690 60 17.43 13571 7.58
743 2415290 319 57.64 13588 42.49
744 2417508 467 121.56 13604 81.48
745 2423637 384 80.08 13620 45.07
746 2437709 280 48.67 13641 51.84
747 2445733 387 81.05 13657 49.90
748 2446137 504 143.61 13673 66.98
749 2452349 216 36.85 13691 27.34
750 2453636 403 88.99 13707 55.06
751 2454119 352 66.89 13726 60.86
752 2456897 83 20.46 13743 -2.95
753 2457601 504 143.61 13760 94.38
754 2467114 440 109.25 13778 80.41
755 2469889 207 35.26 13795 19.18
756 2471205 335 61.77 13812 59.25
757 2479577 540 166.11 13828 91.80
758 2485426 327 59.28 13844 37.76
759 2485486 359 69.86 13860 53.66
760 2487656 286 49.78 13877 42.49
761 2488734 323 58.48 13893 52.80
762 2492079 199 33.86 13909 45.07
763 2492737 440 109.25 13925 80.20
764 2498840 335 61.77 13990 65.69
765 2499565 387 81.05 14009 73.75
766 2501177 398 85.63 14025 69.56
767 2504441 440 109.25 14042 65.37
768 2505158 476 129.76 14058 91.80
769 2506106 319 57.64 14075 48.94
770 2507967 353 67.64 14091 63.76
771 2515127 57 16.93 14109 12.09
772 2520175 384 80.08 14127 48.61
773 2520534 380 78.12 14143 64.19
774 2521720 399 87.30 14159 49.47
775 2523712 415 95.00 14175 61.72
776 2524086 568 189.84 14192 109.20
777 2525107 344 64.67 14209 60.86
778 2534835 369 73.42 14231 75.79
779 2535309 323 58.48 14247 29.92
780 2537006 268 46.26 14266 41.52
781 2547268 486 135.98 14284 91.80
782 2548740 302 53.30 14300 50.55
783 2549587 412 92.93 14317 57.96
784 2556537 492 134.92 14333 60.86
785 2562456 355 68.30 14349 49.90
786 2563854 401 87.91 14365 68.59
787 2563881 371 73.82 14381 65.69
788 2564451 295 51.75 14397 56.24
789 2565517 78 19.92 14413 -5.63
790 2572147 51 15.86 14430 -6.49
791 2573647 163 28.20 14446 25.41
792 2577604 295 51.75 14463 58.93
793 2585842 480 130.21 14479 62.15
794 2589443 455 117.03 14498 87.93
795 2594519 352 66.89 14514 42.71
796 2600685 120 23.58 14530 19.61
797 2602776 391 82.35 14546 56.24
798 2607000 376 76.43 14562 55.17
799 2611424 435 104.92 14580 65.69
800 2618177 433 104.37 14596 84.28
801 2622618 353 67.64 14662 68.06
802 2628212 463 119.23 14679 72.03
803 2630721 376 76.43 14696 69.45
804 2633155 319 57.64 14712 37.98
805 2633732 408 90.57 14728 71.17
806 2636377 408 90.57 14745 50.55
807 2637349 120 23.58 14761 12.63
808 2638087 415 95.00 14777 56.24
809 2640300 319 57.64 14796 50.55
810 2640540 188 32.01 14812 28.20
811 2645187 135 24.92 14829 3.82
812 2649288 319 57.64 14847 57.96
813 2649921 472 125.87 14863 73.75
814 2656789 204 34.73 14879 29.49
815 2658107 335 61.77 14895 40.23
816 2662822 316 56.81 14914 42.17
817 2673249 313 56.02 14931 55.38
818 2681314 455 117.03 14947 78.58
819 2682969 583 201.26 14963 90.72
820 2683007 326 59.13 14979 65.69
821 2685236 550 172.20 14995 86.21
822 2697579 323 58.48 15013 37.98
823 2697784 89 21.05 15080 3.82
824 2698642 355 68.30 15096 34.76
825 2699436 547 162.22 15112 99.21
826 2699574 481 129.57 15128 99.21
827 2700544 323 58.48 15145 78.26
828 2700731 396 85.28 15161 76.76
829 2705470 327 59.28 15178 42.38
830 2707829 319 57.64 15194 50.55
831 2708293 63 17.91 15210 6.72
832 2709602 302 53.30 15226 41.52
833 2709800 510 148.47 15242 86.32
834 2710838 414 93.93 15258 71.17
835 2712047 167 28.76 15274 8.22
836 2712587 319 57.64 15290 45.07
837 2712660 391 82.35 15306 63.87
838 2713098 344 64.67 15325 40.23
839 2718315 352 66.89 15341 62.15
840 2723766 430 101.41 15359 74.50
841 2726744 435 104.92 15376 84.38
842 2736242 408 90.57 15394 78.58
843 2739518 384 80.08 15410 50.55
844 2741236 327 59.28 15426 54.52
845 2745457 366 72.41 15442 60.86
846 2748969 224 38.29 15458 24.44
847 2749827 350 66.46 15475 72.03
848 2750111 335 61.77 15491 32.18
849 2756455 352 66.89 15507 63.44
850 2758428 318 57.28 15523 43.78
851 2758992 348 65.64 15539 57.96
852 2761113 287 50.23 15556 42.17
853 2763421 568 189.84 15575 83.74
854 2773607 280 48.67 15595 53.45
855 2774925 368 72.93 15611 64.19
856 2781543 248 42.69 15628 32.18
857 2783922 768 471.89 15644 137.13
858 2785604 323 58.48 15661 79.87
859 2788077 318 57.28 15678 57.96
860 2788129 220 37.58 15694 33.57
861 2792369 428 101.58 15712 93.09
862 2799830 359 69.86 15728 63.44
863 2804908 339 62.98 15745 47.97
864 2805937 359 69.86 15809 50.55
865 2807644 268 46.26 15825 52.48
866 2810379 398 85.63 15843 73.75
867 2824954 419 97.20 15865 89.97
868 2828988 344 64.67 15883 60.86
869 2829757 344 64.67 15899 42.49
870 2829808 316 56.81 15915 47.97
871 2829841 492 134.92 15931 82.24
872 2835902 387 81.05 15949 83.42
873 2842780 440 109.25 15968 72.46
874 2851078 326 59.13 15988 72.46
875 2852835 465 122.12 16004 60.86
876 2853543 364 71.71 16020 68.59
877 2854176 353 67.64 16036 67.95
878 2856214 327 59.28 16052 67.30
879 2857517 334 61.44 16068 60.00
880 2858891 344 64.67 16084 65.69
881 2864426 323 58.48 16100 40.23
882 2867899 327 59.28 16168 55.38
883 2869013 344 64.67 16184 63.44
884 2870689 556 174.47 16200 104.47
885 2871484 316 56.81 16217 58.39
886 2875410 295 51.75 16233 47.97
887 2879866 435 104.92 16250 89.22
888 2882543 433 104.37 16267 63.44
889 2888078 335 61.77 16284 47.97
890 2892660 390 82.70 16301 103.40
891 2899898 300 52.79 16317 41.52
892 2901399 432 101.61 16333 67.30
893 2901427 639 249.88 16349 117.26
894 2902963 195 33.17 16365 11.77
895 2903065 455 117.03 16381 63.44
896 2903530 391 82.35 16400 71.17
897 2905134 344 64.67 16416 48.51
898 2907521 403 88.99 16433 63.44
899 2907692 417 95.20 16449 74.50
900 2909072 335 61.77 16465 50.55
901 2909495 319 57.64 16481 52.80
902 2911120 369 73.42 16497 62.90
903 2914276 300 52.79 16514 40.99
904 2915468 195 33.17 16530 16.71
905 2915946 414 93.93 16546 64.40
906 2916708 481 129.57 16562 91.80
907 2918593 295 51.75 16578 45.07
908 2921917 332 61.17 16594 61.72
909 2922299 364 71.71 16610 64.40
910 2924042 302 53.30 16627 48.83
911 2929699 312 55.68 16646 32.18
912 2933554 120 23.58 16663 22.94
913 2933579 113 23.02 16679 -0.05
914 2934764 432 101.61 16695 73.75
915 2942856 371 73.82 16713 58.71
916 2948490 454 115.28 16729 69.45
917 2951000 335 61.77 16746 62.15
918 2953360 368 72.93 16762 52.80
919 2953561 472 125.87 16778 84.38
920 2955104 56 16.76 16794 -6.49
921 2956625 280 48.67 16810 25.41
922 2956693 188 32.01 16826 14.13
923 2957170 460 119.54 16842 56.99
924 2962985 366 72.41 16858 60.86
925 2963132 408 90.57 16877 73.75
926 2965018 476 129.76 16893 71.17
927 2966544 390 82.70 16958 51.30
928 2971567 255 43.96 16976 42.49
929 2975493 455 117.03 16992 68.70
930 2975888 312 55.68 17008 34.76
931 2978196 207 35.26 17024 16.71
932 2982534 352 66.89 17041 45.07
933 2986242 241 41.39 17058 30.57
934 2987454 483 132.60 17074 68.06
935 2992725 604 210.97 17092 98.24
936 2997891 419 97.20 17110 72.46
937 2998999 384 80.08 17126 76.01
938 3002116 387 81.05 17142 73.21
939 3006291 430 101.41 17159 52.48
940 3016154 295 51.75 17228 34.76
941 3018663 376 76.43 17246 53.66
942 3018818 368 72.93 17262 62.79
943 3027685 352 66.89 17278 68.59
944 3032608 384 80.08 17294 73.75
945 3032986 385 80.11 17310 53.66
946 3034347 255 43.96 17326 24.12
947 3038632 540 166.11 17343 88.36
948 3043509 271 46.93 17360 32.18
949 3045340 391 82.35 17376 76.87
950 3046389 326 59.13 17392 47.32
951 3047075 451 113.08 17408 78.26
952 3047553 344 64.67 17424 38.41
953 3050627 366 72.41 17441 75.04
954 3050877 319 57.64 17468 61.72
955 3051351 611 211.89 17484 102.11
956 3052245 430 101.41 17500 60.86
957 3053722 163 28.20 17516 12.20
958 3056317 339 62.98 17534 52.59
959 3060609 339 62.98 17550 60.86
960 3065304 56 16.76 17567 3.71
961 3066800 78 19.92 17583 -1.66
962 3069202 270 46.71 17600 55.38
963 3080670 355 68.30 17618 63.44
964 3086663 384 80.08 17635 50.55
965 3089022 312 55.68 17652 68.06
966 3089132 391 82.35 17668 73.75
967 3090840 63 17.91 17685 -11.33
968 3091141 287 50.23 17701 29.28
969 3093615 79 20.03 17720 3.82
970 3101134 271 46.93 17736 34.76
971 3102775 408 90.57 17752 51.30
972 3104041 451 113.08 17768 78.80
973 3104210 440 109.25 17784 86.10
974 3104484 440 109.25 17800 57.64
975 3104817 465 122.12 17816 65.69
976 3107390 327 59.28 17834 58.71
977 3108499 391 82.35 17850 45.07
978 3108635 387 81.05 17866 63.44
979 3109048 422 97.97 17882 76.01
980 3111018 344 64.67 17898 57.96
981 3111243 399 87.30 17914 68.59
982 3114832 423 97.36 17931 83.74
983 3115741 359 69.86 17951 81.48
984 3127191 255 43.96 17970 22.19
985 3131292 304 53.73 17987 32.93
986 3131386 295 51.75 18003 24.98
987 3139580 390 82.70 18020 69.45
988 3141721 248 42.69 18037 49.47
989 3145617 547 162.22 18053 108.98
990 3149547 352 66.89 18118 52.80
991 3152725 440 109.25 18134 87.93
992 3154379 671 277.06 18150 136.16
993 3157736 195 33.17 18167 22.51
994 3164634 192 32.67 18184 25.41
995 3166232 96 21.67 18200 -3.92
996 3166537 551 164.56 18216 82.77
997 3166998 711 380.66 18232 117.26
998 3167378 385 80.11 18251 55.38
999 3171329 332 61.17 18317 68.59
1000 3171942 391 82.35 18333 60.86
1001 3172208 440 109.25 18349 79.55
1002 3173112 412 92.93 18365 82.77
1003 3175675 120 23.58 18381 19.61
1004 3177361 352 66.89 18397 52.80
1005 3177936 192 32.67 18413 31.86
1006 3179096 271 46.93 18429 45.07
1007 3183021 480 130.21 18445 82.24
1008 3189843 423 97.36 18461 72.03
1009 3192606 455 117.03 18477 73.75
1010 3200534 384 80.08 18495 55.38
1011 3202763 396 85.28 18511 79.23
1012 3205521 332 61.17 18530 48.94
1013 3213703 316 56.81 18548 52.80
1014 3216173 433 104.37 18564 63.22
1015 3216264 318 57.28 18580 56.24
1016 3217167 504 143.61 18596 95.13
1017 3223579 287 50.23 18612 28.31
1018 3232624 323 58.48 18632 48.94
1019 3235047 316 56.81 18648 52.70
1020 3235133 350 66.46 18664 56.99
1021 3235613 236 40.44 18680 22.19
1022 3237052 387 81.05 18696 61.40
1023 3239397 56 16.76 18712 1.03
1024 3240430 412 92.93 18728 69.45
1025 3242301 419 97.20 18744 58.17
1026 3250657 408 90.57 18765 84.38
1027 3254000 127 24.18 18782 1.24
1028 3256879 327 59.28 18799 62.15
1029 3257604 476 129.76 18815 83.53
1030 3258866 193 32.84 18831 29.92
1031 3267195 337 62.30 18847 47.97
1032 3277633 496 144.49 18865 86.00
1033 3283934 647 246.69 18883 99.21
1034 3284675 476 129.76 18899 99.21
1035 3286663 62 17.75 18915 -11.33
1036 3290348 352 66.89 18931 61.72
1037 3303061 376 76.43 18950 56.99
1038 3307148 295 51.75 18966 66.66
1039 3307316 403 88.99 18982 73.75
1040 3311727 359 69.86 19001 51.84
1041 3313077 76 19.69 19017 -3.92
1042 3316347 444 109.09 19033 62.90
1043 3320115 415 95.00 19049 60.00
1044 3320309 412 92.93 19065 71.17
1045 3322281 423 97.36 19081 65.37
1046 3322803 384 80.08 19097 56.24
1047 3323455 385 80.11 19113 71.17
1048 3328640 568 189.84 19130 86.21
1049 3329680 323 58.48 19147 57.64
1050 3334358 403 88.99 19163 55.92
1051 3339995 344 64.67 19181 60.86
1052 3347506 327 59.28 19200 64.40
1053 3348359 287 50.23 19265 52.80
1054 3348980 359 69.86 19281 48.94
1055 3350465 335 61.77 19300 38.30
1056 3351408 280 48.67 19316 22.19
1057 3358089 460 119.54 19333 71.17
1058 3361296 289 50.47 19398 27.34
1059 3361469 408 90.57 19414 47.97
1060 3363155 120 23.58 19430 26.05
1061 3368853 92 21.32 19446 11.88
1062 3368884 384 80.08 19462 47.97
1063 3375438 398 85.63 19480 60.86
1064 3380017 79 20.03 19499 16.71
1065 3392337 387 81.05 19520 45.07
1066 3394967 359 69.86 19537 69.56
1067 3398390 56 16.76 19555 27.34
1068 3400612 184 31.36 19571 24.44
1069 3401057 302 53.30 19590 45.28
1070 3401729 368 72.93 19606 63.44
1071 3403830 480 130.21 19622 64.19
1072 3405558 295 51.75 19639 37.76
1073 3407957 487 132.65 19655 91.80
1074 3409505 319 57.64 19671 60.86
1075 3412090 408 90.57 19687 74.50
1076 3420331 368 72.93 19704 63.44
1077 3423687 127 24.18 19720 9.30
1078 3435116 543 164.77 19740 83.42
1079 3445301 412 92.93 19758 59.25
1080 3447457 472 125.87 19774 77.62
1081 3448980 512 144.44 19790 103.40
1082 3453329 419 97.20 19805 61.72
1083 3457257 358 69.10 19824 63.54
1084 3468776 337 62.30 19843 45.07
1085 3475147 384 80.08 19863 79.44
1086 3476748 451 113.08 19879 82.24
1087 3478026 313 56.02 19895 51.84
1088 3481118 307 54.48 19911 42.71
1089 3482580 337 62.30 19927 63.44
1090 3486568 96 21.67 19944 16.71
1091 3487419 412 92.93 19960 52.80
1092 3489604 401 87.91 19977 68.59
1093 3492378 140 25.42 19994 10.59
1094 3492856 67 18.51 20010 -1.66
1095 3494624 335 61.77 20028 71.17
1096 3495902 481 129.57 20046 99.21
1097 3502610 304 53.73 20066 62.15
1098 3515268 401 87.91 20086 65.37
1099 3522105 120 23.58 20102 7.04
1100 3529255 335 61.77 20118 40.99
1101 3534927 448 112.41 20134 91.80
1102 3543786 376 76.43 20152 53.66
1103 3543895 284 49.41 20168 42.49
1104 3555769 152 26.78 20184 10.59
1105 3555968 319 57.64 20200 27.34
1106 3558096 335 61.77 20217 65.69
1107 3568534 225 38.48 20233 40.23
1108 3572106 192 32.67 20250 23.15
1109 3573187 423 97.36 20266 52.59
1110 3581123 337 62.30 20283 63.44
1111 3584793 319 57.64 20302 51.84
1112 3584941 428 101.58 20318 72.46
1113 3585275 448 112.41 20334 64.73
1114 3585771 380 78.12 20351 76.01
1115 3589604 384 80.08 20367 53.66
1116 3590021 366 72.41 20432 48.83
1117 3591316 467 121.56 20496 76.01
1118 3594084 268 46.26 20512 49.47
1119 3594294 318 57.28 20528 52.80
1120 3595124 391 82.35 20544 50.55
1121 3599184 579 187.32 20560 89.22
1122 3600183 62 17.75 20576 -0.26
1123 3602274 527 155.96 20592 98.89
1124 3603990 353 67.64 20608 60.86
1125 3608746 369 73.42 20625 58.71
1126 3610284 355 68.30 20640 61.72
1127 3616074 94 21.50 20657 13.16
1128 3617049 527 155.96 20673 89.65
1129 3621647 369 73.42 20690 51.84
1130 3624628 51 15.86 20707 12.20
1131 3625130 384 80.08 20723 56.99
1132 3630339 353 67.64 20739 60.86
1133 3631446 391 82.35 20755 62.15
1134 3636063 371 73.82 20771 53.45
1135 3637529 99 21.91 20787 2.53
1136 3638914 344 64.67 20803 51.84
1137 3638987 323 58.48 20819 51.30
1138 3641616 472 125.87 20836 73.75
1139 3646549 476 129.76 20852 67.30
1140 3649047 240 41.21 20872 19.18
1141 3652518 312 55.68 20888 43.78
1142 3654837 344 64.67 20904 38.62
1143 3655849 352 66.89 20920 42.49
1144 3656885 451 113.08 20936 74.50
1145 3660678 448 112.41 20953 68.59
1146 3664127 344 64.67 20970 55.38
1147 3666424 304 53.73 20987 57.64
1148 3668204 496 144.49 21003 87.29
1149 3669056 384 80.08 21019 51.30
1150 3669752 399 87.30 21036 71.17
1151 3671276 454 115.28 21053 83.74
1152 3671639 380 78.12 21069 50.55
1153 3675571 423 97.36 21086 76.87
1154 3691289 318 57.28 21109 40.23
1155 3694985 142 25.64 21125 22.19
1156 3704042 300 52.79 21145 38.19
1157 3707716 352 66.89 21163 57.96
1158 3709395 348 65.64 21179 48.94
1159 3710014 440 109.25 21195 78.58
1160 3713268 368 72.93 21212 74.50
1161 3713917 88 20.96 21228 3.82
1162 3717511 302 53.30 21244 51.30
1163 3717754 287 50.23 21260 45.07
1164 3719521 376 76.43 21278 46.04
1165 3734184 344 64.67 21299 58.39
1166 3738795 480 130.21 21316 79.55
1167 3738983 419 97.20 21332 68.59
1168 3739968 408 90.57 21351 64.19
1169 3754723 423 97.36 21367 76.01
1170 3756530 255 43.96 21384 50.55
1171 3756809 368 72.93 21400 63.44
1172 3764214 448 112.41 21418 73.64
1173 3765582 480 130.21 21434 95.13
1174 3771859 419 97.20 21451 81.48
1175 3773370 327 59.28 21467 50.55
1176 3776018 704 326.52 21483 117.26
1177 3777084 359 69.86 21547 51.30
1178 3777956 433 104.37 21563 76.87
1179 3779615 422 97.97 21627 60.86
1180 3787570 216 36.85 21643 22.19
1181 3790358 332 61.17 21659 63.44
1182 3791268 284 49.41 21678 37.12
1183 3791326 316 56.81 21694 43.78
1184 3791754 391 82.35 21710 40.23
1185 3792516 409 91.12 21726 55.27
1186 3792639 327 59.28 21742 37.01
1187 3804781 423 97.36 21760 87.93
1188 3806376 300 52.79 21776 32.18
1189 3806893 451 113.08 21792 63.44
1190 3815446 96 21.67 21810 3.82
1191 3816136 376 76.43 21826 56.24
1192 3818342 496 144.49 21844 90.19
1193 3820069 368 72.93 21860 61.72
1194 3830494 368 72.93 21879 60.00
1195 3831463 371 73.82 21895 55.38
1196 3832649 664 270.86 21914 112.42
1197 3840858 551 164.56 21932 84.38
1198 3844784 417 95.20 21950 57.96
1199 3845942 305 53.88 21966 31.86
1200 3849756 377 76.28 21982 73.75
1201 3851427 327 59.28 21999 40.23
1202 3853092 88 20.96 22015 19.61
1203 3854904 432 101.61 22031 52.80
1204 3857604 358 69.10 22048 55.38
1205 3859984 387 81.05 22065 45.07
1206 3867755 368 72.93 22084 56.46
1207 3868086 159 27.66 22100 3.82
1208 3868482 344 64.67 22116 38.30
1209 3869728 448 112.41 22132 76.01
1210 3870766 428 101.58 22148 63.44
1211 3873000 451 113.08 22167 69.45
1212 3882957 543 164.77 22187 89.22
1213 3885113 352 66.89 22203 75.90
1214 3885983 409 91.12 22219 81.48
1215 3888653 387 81.05 22235 62.15
1216 3888942 313 56.02 22251 52.80
1217 3894665 460 119.54 22268 81.48
1218 3894796 550 172.20 22284 84.28
1219 3898927 319 57.64 22302 55.38
1220 3900638 396 85.28 22318 43.78
1221 3900799 451 113.08 22334 74.72
1222 3902315 632 232.56 22350 119.83
1223 3903143 353 67.64 22366 45.07
1224 3906966 391 82.35 22383 74.50
1225 3907787 451 113.08 22402 69.13
1226 3907854 57 16.93 22418 9.30
1227 3909574 387 81.05 22434 55.38
1228 3912400 352 66.89 22450 55.38
1229 3915836 423 97.36 22466 58.93
1230 3915872 428 101.58 22482 73.75
1231 3916237 192 32.67 22498 37.33
1232 3918408 326 59.13 22515 60.86
1233 3918427 359 69.86 22531 60.86
1234 3924080 262 45.24 22548 36.37
1235 3926561 496 144.49 22565 84.60
1236 3928508 399 87.30 22630 76.87
1237 3930634 359 69.86 22646 46.04
1238 3932017 408 90.57 22662 47.97
1239 3936007 248 42.69 22682 22.72
1240 3936763 352 66.89 22699 65.69
1241 3937413 291 50.97 22715 53.66
1242 3941381 371 73.82 22780 47.97
1243 3941705 300 52.79 22796 48.94
1244 3942808 385 80.11 22812 48.94
1245 3944416 463 119.23 22829 94.38
1246 3958630 334 61.44 22846 60.86
1247 3962245 480 130.21 22862 86.32
1248 3963371 319 57.64 22878 38.41
1249 3967973 588 183.26 22894 108.55
1250 3968851 430 101.41 22912 86.32
1251 3969322 204 34.73 22928 41.52
1252 3974718 551 164.56 22945 87.29
1253 3975722 440 109.25 22964 71.17
1254 3979900 263 45.37 22982 38.62
1255 3980157 504 143.61 22999 95.13
1256 3997239 399 87.30 23021 72.03
1257 3998759 399 87.30 23038 76.87
1258 4001423 448 112.41 23054 79.66
1259 4009001 399 87.30 23070 58.93
1260 4011691 480 130.21 23087 75.68
1261 4017012 396 85.28 23106 76.76
1262 4020946 463 119.23 23123 70.10
1263 4023660 487 132.65 23139 77.62
1264 4034703 476 129.76 23156 82.02
1265 4039206 480 130.21 23173 82.77
1266 4040978 319 57.64 23189 38.41
1267 4044604 158 27.53 23208 24.44
1268 4044680 423 97.36 23224 62.90
1269 4053229 280 48.67 23241 31.21
1270 4053863 339 62.98 23257 55.38
1271 4056458 414 93.93 23274 61.72
1272 4060798 323 58.48 23291 46.04
1273 4067337 291 50.97 23307 37.33
1274 4070820 371 73.82 23324 55.38
1275 4071018 255 43.96 23340 42.28
1276 4075733 65 18.22 23357 -13.05
1277 4081983 515 147.53 23374 93.84
1278 4084274 275 47.73 23391 40.23
1279 4090330 216 36.85 23411 16.39
1280 4092582 476 129.76 23427 89.22
1281 4094512 313 56.02 23446 41.52
1282 4095668 384 80.08 23462 62.15
1283 4098519 352 66.89 23478 73.75
1284 4104271 319 57.64 23496 42.17
1285 4107303 287 50.23 23512 32.82
1286 4111821 327 59.28 23530 44.96
1287 4114870 321 58.01 23547 50.55
1288 4119757 448 112.41 23565 71.17
1289 4123617 430 101.41 23583 59.25
1290 4124241 399 87.30 23599 60.86
1291 4126723 355 68.30 23615 60.86
1292 4127305 487 132.65 23631 91.80
1293 4132248 71 19.06 23648 21.33
1294 4142997 368 72.93 23666 55.06
1295 4144557 476 129.76 23733 64.19
1296 4145980 463 119.23 23749 65.69
1297 4155552 391 82.35 23768 66.66
1298 4158212 280 48.67 23784 49.47
1299 4159082 319 57.64 23800 40.23
1300 4161052 83 20.46 23816 -10.04
1301 4165562 417 95.20 23832 65.69
1302 4171837 480 130.21 23851 91.15
1303 4174366 430 101.41 23867 60.86
1304 4174899 263 45.37 23883 26.70
1305 4177535 83 20.46 23949 3.82
1306 4178818 300 52.79 23965 32.18
1307 4181669 435 104.92 23981 67.95
1308 4186029 167 28.76 23998 37.33
1309 4190486 467 121.56 24019 74.50
1310 4191900 348 65.64 24037 51.84
1311 4195107 339 62.98 24053 40.23
1312 4197409 526 158.17 24069 98.99
1313 4198847 476 129.76 24086 76.01
1314 4199534 344 64.67 24102 47.43
1315 4204010 300 52.79 24119 41.52
1316 4204922 335 61.77 24135 48.61
1317 4205403 423 97.36 24151 74.50
1318 4208786 569 185.56 24167 103.40
1319 4209801 369 73.42 24184 78.26
1320 4221981 391 82.35 24201 67.30
1321 4227103 344 64.67 24219 37.33
1322 4234512 412 92.93 24237 64.19
1323 4235606 435 104.92 24256 73.75
1324 4237397 359 69.86 24274 71.17
1325 4237816 216 36.85 24290 38.62
1326 4238414 448 112.41 24306 78.26
1327 4241926 316 56.81 24323 37.76
1328 4243717 448 112.41 24339 87.07
1329 4245424 335 61.77 24356 55.27
1330 4246183 355 68.30 24372 60.00
1331 4252777 542 168.67 24390 99.21
1332 4255372 344 64.67 24406 53.66
1333 4257943 319 57.64 24424 67.30
1334 4261200 97 21.75 24442 1.46
1335 4263563 472 125.87 24459 62.15
1336 4264171 319 57.64 24476 57.96
1337 4264442 433 104.37 24495 56.67
1338 4265056 448 112.41 24511 64.19
1339 4265733 376 76.43 24527 71.17
1340 4266839 295 51.75 24543 35.08
1341 4271309 316 56.81 24560 48.40
1342 4276371 396 85.28 24579 64.40
1343 4282377 332 61.17 24595 58.93
1344 4292395 432 101.61 24611 60.43
1345 4295025 51 15.86 24628 -16.81
1346 4295520 263 45.37 24644 14.13
1347 4297763 179 30.55 24660 6.72
1348 4298974 396 85.28 24676 53.45
1349 4299043 348 65.64 24692 56.13
1350 4302680 487 132.65 24708 62.90
1351 4304358 224 38.29 24724 20.90
1352 4310489 480 130.21 24746 69.02
1353 4312911 432 101.61 24811 55.38
1354 4314544 305 53.88 24827 29.92
1355 4315005 323 58.48 24843 48.94
1356 4320256 224 38.29 24860 34.65
1357 4327771 312 55.68 24876 41.52
1358 4327906 391 82.35 24892 62.90
1359 4328530 300 52.79 24909 55.38
1360 4328595 457 118.95 24925 81.48
1361 4335057 399 87.30 24941 59.79
1362 4339525 275 47.73 24958 53.66
1363 4343944 496 144.49 24975 63.44
1364 4344946 384 80.08 24991 73.75
1365 4347257 359 69.86 25007 66.77
1366 4351609 454 115.28 25029 73.75
1367 4355528 472 125.87 25046 78.26
1368 4359547 63 17.91 25112 7.04
1369 4367466 512 144.44 25131 94.38
1370 4367526 305 53.88 25146 64.19
1371 4370174 497 142.37 25162 80.41
1372 4372720 591 188.65 25178 112.42
1373 4378373 56 16.76 25196 11.88
1374 4380036 300 52.79 25212 57.96
1375 4383196 312 55.68 25229 63.44
1376 4384955 353 67.64 25246 47.97
1377 4387685 366 72.41 25263 63.44
1378 4392448 401 87.91 25280 57.64
1379 4398963 255 43.96 25297 23.15
1380 4399153 268 46.26 25316 32.18
1381 4399195 220 37.58 25332 24.44
1382 4408764 423 97.36 25350 66.66
1383 4412250 508 144.95 25366 74.29
1384 4412825 327 59.28 25382 42.49
1385 4425673 204 34.73 25399 10.59
1386 4434914 97 21.75 25417 9.30
1387 4438962 284 49.41 25434 45.07
1388 4439181 384 80.08 25450 62.90
1389 4443338 56 16.76 25466 -6.49
1390 4443659 326 59.13 25482 37.33
1391 4446198 368 72.93 25499 72.03
1392 4446642 195 33.17 25515 18.00
1393 4455231 441 109.77 25532 76.87
1394 4458881 348 65.64 25552 69.56
1395 4459145 403 88.99 25568 74.50
1396 4461931 352 66.89 25585 68.59
1397 4462338 368 72.93 25601 53.45
1398 4471951 159 27.66 25619 22.51
1399 4472935 172 29.49 25635 14.13
1400 4475785 319 57.64 25652 57.96
1401 4476096 323 58.48 25668 52.80
1402 4479985 460 119.54 25686 67.30
1403 4483394 353 67.64 25702 51.19
1404 4483987 108 22.63 25718 2.31
1405 4489084 579 187.32 25735 87.93
1406 4491121 408 90.57 25751 62.15
1407 4494670 110 22.78 25767 -8.00
1408 4496952 307 54.48 25787 64.19
1409 4499127 412 92.93 25804 68.59
1410 4500841 364 71.71 25820 67.30
1411 4503317 355 68.30 25837 65.69
1412 4505652 359 69.86 25901 40.23
1413 4519731 56 16.76 25920 -9.39
1414 4527380 483 132.60 25938 79.66
1415 4527871 417 95.20 25954 47.54
1416 4531895 551 164.56 25970 89.54
1417 4532936 419 97.20 25986 71.17
1418 4533805 355 68.30 26002 50.55
1419 4534651 179 30.55 26018 29.92
1420 4548077 113 23.02 26036 -2.63
1421 4549164 350 66.46 26052 43.56
1422 4551214 216 36.85 26068 32.18
1423 4552904 344 64.67 26082 65.37
1424 4556842 390 82.70 26099 42.49
1425 4561357 344 64.67 26116 41.20
1426 4564938 440 109.25 26133 75.68
1427 4566146 510 148.47 26149 102.11
1428 4566736 321 58.01 26165 44.75
1429 4570672 352 66.89 26181 34.76
1430 4582310 415 95.00 26200 71.17
1431 4582490 536 160.18 26265 100.82
1432 4586255 417 95.20 26281 64.40
1433 4591853 391 82.35 26298 53.55
1434 4594233 408 90.57 26315 83.53
1435 4597416 496 144.49 26332 69.13
1436 4598520 359 69.86 26349 58.82
1437 4598830 348 65.64 26368 60.21
1438 4603197 359 69.86 26385 62.90
1439 4603976 359 69.86 26401 68.59
1440 4604502 513 148.53 26418 96.63
1441 4608915 432 101.61 26435 79.34
1442 4612504 455 117.03 26452 78.58
1443 4639584 387 81.05 26474 55.06
1444 4641386 428 101.58 26490 84.60
1445 4642696 492 134.92 26507 84.38
1446 4643029 415 95.00 26523 58.82
1447 4644604 316 56.81 26539 40.23
1448 4645919 391 82.35 26556 78.58
1449 4646760 368 72.93 26572 45.07
1450 4649500 348 65.64 26588 58.60
1451 4649986 316 56.81 26607 45.07
1452 4653990 463 119.23 26623 57.85
1453 4661488 323 58.48 26641 40.23
1454 4662738 211 35.96 26657 13.16
1455 4663113 399 87.30 26673 63.44
1456 4671939 444 109.09 26691 68.70
1457 4672977 345 64.98 26708 53.34
1458 4682835 419 97.20 26725 56.67
1459 4685129 575 187.30 26742 91.80
1460 4688752 364 71.71 26759 50.55
1461 4689374 321 58.01 26775 42.71
1462 4691506 451 113.08 26791 71.17
1463 4695772 112 22.94 26808 -10.04
1464 4695918 339 62.98 26824 34.76
1465 4695956 536 160.18 26843 87.39
1466 4696238 417 95.20 26859 83.53
1467 4700144 327 59.28 26875 58.39
1468 4700569 57 16.93 26891 9.30
1469 4702524 391 82.35 26908 82.24
1470 4709098 348 65.64 26925 42.49
1471 4716520 472 125.87 26942 83.42
1472 4723864 188 32.01 27010 37.76
1473 4724287 236 40.44 27026 35.62
1474 4729794 273 47.25 27042 29.92
1475 4731747 519 154.30 27058 91.80
1476 4731814 335 61.77 27074 69.99
1477 4732646 339 62.98 27090 64.19
1478 4739859 332 61.17 27109 37.33
1479 4746279 460 119.54 27130 66.66
1480 4747296 304 53.73 27146 29.92
1481 4747972 449 112.05 27162 78.37
1482 4751610 339 62.98 27180 64.19
1483 4751756 483 132.60 27196 89.22
1484 4753595 335 61.77 27213 66.66
1485 4756221 366 72.41 27229 68.59
1486 4768242 352 66.89 27247 52.80
1487 4769578 408 90.57 27263 74.50
1488 4770148 384 80.08 27279 63.44
1489 4779469 551 164.56 27297 86.32
1490 4783158 316 56.81 27313 32.18
1491 4784293 312 55.68 27329 33.57
1492 4790019 332 61.17 27347 60.86
1493 4798141 377 76.28 27369 63.44
1494 4801144 327 59.28 27434 61.72
1495 4803311 428 101.58 27452 79.44
1496 4806325 280 48.67 27469 28.31
1497 4808362 334 61.44 27485 60.86
1498 4811147 384 80.08 27502 59.03
1499 4816156 350 66.46 27518 46.04
1500 4816685 112 22.94 27534 14.02
1501 4819306 159 27.66 27551 12.63
1502 4821336 728 431.28 27567 136.70
1503 4826869 462 120.87 27583 84.60
1504 4831171 289 50.47 27599 37.01
1505 4833575 401 87.91 27615 57.96
1506 4836755 179 30.55 27631 27.67
1507 4838018 369 73.42 27651 61.83
1508 4841903 81 20.25 27667 -6.49
1509 4843487 135 24.92 27683 3.82
1510 4844850 369 73.42 27699 65.59
1511 4847711 415 95.00 27716 82.77
1512 4848931 302 53.30 27732 45.07
1513 4851255 327 59.28 27748 46.14
1514 4852065 399 87.30 27764 52.59
1515 4852628 403 88.99 27780 55.27
1516 4854093 467 121.56 27796 78.80
1517 4854851 335 61.77 27812 67.30
1518 4855912 323 58.48 27828 45.07
1519 4860782 396 85.28 27846 74.50
1520 4860853 415 95.00 27862 79.55
1521 4870356 335 61.77 27882 72.03
1522 4871267 195 33.17 27898 19.61
1523 4883624 327 59.28 27917 50.55
1524 4885087 391 82.35 27933 76.87
1525 4885664 204 34.73 27949 40.99
1526 4893148 110 22.78 27965 10.59
1527 4895463 390 82.70 27982 73.75
1528 4895961 472 125.87 27998 90.19
1529 4898178 335 61.77 28014 37.33
1530 4898672 323 58.48 28030 52.80
1531 4900028 423 97.36 28094 76.01
1532 4901348 403 88.99 28110 67.95
1533 4903833 403 88.99 28126 66.66
1534 4911299 583 201.26 28142 109.95
1535 4912061 316 56.81 28158 55.06
1536 4915223 327 59.28 28177 38.09
1537 4917477 600 203.87 28193 105.22
1538 4920630 444 109.09 28209 69.45
1539 4922118 435 104.92 28226 69.02
1540 4928238 396 85.28 28243 65.37
1541 4933290 323 58.48 28261 48.51
1542 4933707 419 97.20 28277 73.75
1543 4935851 327 59.28 28293 38.30
1544 4937157 335 61.77 28310 37.76
1545 4941648 70 18.93 28329 28.31
1546 4944625 575 187.30 28345 83.96
1547 4945127 335 61.77 28361 69.45
1548 4946374 399 87.30 28377 73.86
1549 4953249 312 55.68 28394 57.96
1550 4954406 352 66.89 28413 57.96
1551 4955882 124 23.92 28429 25.52
1552 4957402 284 49.41 28445 37.01
1553 4959041 368 72.93 28461 55.06
1554 4961260 344 64.67 28478 50.55
1555 4973613 337 62.30 28496 65.37
1556 4975221 339 62.98 28512 45.07
1557 4989127 312 55.68 28580 40.23
1558 4991699 352 66.89 28596 60.86
1559 4992567 96 21.67 28614 18.96
1560 4993806 359 69.86 28630 43.78
1561 4996861 204 34.73 28648 41.52
1562 4996896 583 201.26 28665 99.21
1563 4996927 295 51.75 28681 64.19
1564 4997203 56 16.76 28701 16.71
1565 5000262 391 82.35 28717 68.81
1566 5001780 449 112.05 28733 73.75
1567 5003807 337 62.30 28749 37.23
1568 5004225 387 81.05 28765 50.55
1569 5007282 556 174.47 28783 89.97
1570 5007444 255 43.96 28799 52.48
1571 5007467 355 68.30 28815 56.99
1572 5015205 376 76.43 28835 60.86
1573 5025299 60 17.43 28854 10.16
1574 5028440 259 44.69 28870 43.24
1575 5029422 384 80.08 28887 60.21
1576 5029470 327 59.28 28903 56.24
1577 5032407 359 69.86 28919 52.80
1578 5033171 344 64.67 28938 35.62
1579 5038278 432 101.61 28956 73.96
1580 5039994 513 148.53 28973 92.66
1581 5045499 384 80.08 28990 55.38
1582 5045850 99 21.91 29006 14.13
1583 5046420 454 115.28 29022 74.50
1584 5047349 364 71.71 29038 57.96
1585 5049432 177 30.25 29054 22.19
1586 5054376 83 20.46 29071 -7.78
1587 5057455 480 130.21 29087 60.86
1588 5060127 284 49.41 29104 31.53
1589 5062313 481 129.57 29120 73.21
1590 5063673 396 85.28 29185 62.90
1591 5065251 408 90.57 29202 89.33
1592 5066905 358 69.10 29222 69.45
1593 5067198 481 129.57 29238 89.22
1594 5071942 344 64.67 29255 73.75
1595 5072798 440 109.25 29271 87.29
1596 5084218 384 80.08 29289 53.45
1597 5087626 304 53.73 29306 43.24
1598 5089168 369 73.42 29322 48.83
1599 5096954 463 119.23 29340 91.80
1600 5113753 422 97.97 29357 53.66
1601 5114741 492 134.92 29373 93.09
1602 5115429 455 117.03 29389 76.65
1603 5118172 476 129.76 29406 56.46
1604 5122644 352 66.89 29424 60.86
1605 5124017 364 71.71 29440 71.17
1606 5126930 483 132.60 29459 69.13
1607 5127200 67 18.51 29475 11.88
1608 5131514 403 88.99 29492 77.62
1609 5132030 344 64.67 29508 51.30
1610 5133661 574 181.47 29524 86.53
1611 5135570 556 174.47 29541 86.32
1612 5149028 352 66.89 29561 50.55
1613 5152866 199 33.86 29578 42.49
1614 5155743 263 45.37 29595 38.30
1615 5162308 307 54.48 29614 40.99
1616 5163804 248 42.69 29630 47.97
1617 5174693 387 81.05 29650 65.69
1618 5174785 415 95.00 29666 73.75
1619 5183732 419 97.20 29685 77.08
1620 5193306 478 129.43 29754 79.87
1621 5193736 92 21.32 29770 22.51
1622 5196705 476 129.76 29786 74.07
1623 5200108 448 112.41 29802 55.38
1624 5201917 248 42.69 29818 45.07
1625 5207829 222 37.96 29835 26.70
1626 5208390 440 109.25 29851 73.75
1627 5212954 408 90.57 29867 77.62
1628 5214076 384 80.08 29883 74.07
1629 5219500 355 68.30 29899 61.72
1630 5220979 312 55.68 29915 47.97
1631 5223837 368 72.93 29932 73.75
1632 5225467 399 87.30 29948 71.17
1633 5228250 454 115.28 29964 69.56
1634 5232187 364 71.71 29981 55.38
1635 5233252 255 43.96 30000 48.94
1636 5234742 399 87.30 30017 73.75
1637 5235896 348 65.64 30034 64.40
1638 5248450 339 62.98 30053 59.03
1639 5259612 241 41.39 30072 36.37
1640 5260280 376 76.43 30089 63.01
1641 5260900 440 109.25 30105 81.48
1642 5263123 134 24.82 30121 22.19
1643 5270104 430 101.41 30138 71.17
1644 5272204 305 53.88 30154 32.71
1645 5274533 376 76.43 30170 65.69
1646 5274664 275 47.73 30186 47.32
1647 5277164 430 101.41 30203 86.32
1648 5277276 460 119.54 30219 91.80
1649 5280079 67 18.51 30289 14.13
1650 5281338 321 58.01 30305 36.37
1651 5294654 419 97.20 30323 60.86
1652 5296018 312 55.68 30339 32.18
1653 5297241 344 64.67 30355 32.18
1654 5298562 625 226.08 30372 113.39
1655 5299792 408 90.57 30388 59.25
1656 5301200 305 53.88 30404 43.78
1657 5308125 73 19.32 30422 24.44
1658 5312474 353 67.64 30440 43.35
1659 5314297 391 82.35 30456 68.06
1660 5320708 353 67.64 30474 61.72
1661 5321665 316 56.81 30491 34.76
1662 5324384 216 36.85 30507 14.13
1663 5327767 657 260.46 30527 130.47
1664 5327897 432 101.61 30543 102.11
1665 5329580 368 72.93 30560 47.32
1666 5331305 408 90.57 30576 52.80
1667 5339215 268 46.26 30593 24.44
1668 5340887 472 125.87 30609 75.90
1669 5343177 206 35.07 30625 26.05
1670 5350065 344 64.67 30642 52.80
1671 5357048 371 73.82 30659 52.80
1672 5357875 510 148.47 30675 69.56
1673 5358453 284 49.41 30691 53.66
1674 5362240 364 71.71 30709 68.81
1675 5365948 384 80.08 30726 64.19
1676 5370376 408 90.57 30743 67.30
1677 5370816 339 62.98 30762 32.18
1678 5371007 295 51.75 30778 28.20
1679 5371057 455 117.03 30794 68.59
1680 5373940 432 101.61 30810 72.14
1681 5374860 358 69.10 30826 67.30
1682 5376359 192 32.67 30842 21.76
1683 5381024 291 50.97 30908 32.82
1684 5382569 216 36.85 30924 19.61
1685 5382720 327 59.28 30940 42.17
1686 5384386 323 58.48 30956 55.38
1687 5388033 707 320.63 30977 121.66
1688 5388603 408 90.57 30993 91.58
1689 5390531 280 48.67 31009 46.04
1690 5391405 312 55.68 31025 54.09
1691 5391513 408 90.57 31044 68.59
1692 5397160 270 46.71 31061 40.99
1693 5397215 323 58.48 31077 48.83
1694 5406321 304 53.73 31095 43.78
1695 5409437 448 112.41 31111 55.38
1696 5410003 518 151.06 31127 76.01
1697 5411591 56 16.76 31143 -13.91
1698 5413522 449 112.05 31160 71.17
1699 5413722 49 15.48 31176 9.30
1700 5416034 359 69.86 31192 47.32
1701 5419940 352 66.89 31209 42.49
1702 5426688 384 80.08 31226 42.49
1703 5427664 444 109.09 31243 62.15
1704 5430676 335 61.77 31260 64.40
1705 5434196 551 164.56 31279 89.33
1706 5436175 287 50.23 31295 34.76
1707 5439046 415 95.00 31362 84.60
1708 5446339 323 58.48 31379 46.68
1709 5454258 398 85.63 31398 65.69
1710 5458664 88 20.96 31414 -0.26
1711 5462729 352 66.89 31430 50.55
1712 5464294 433 104.37 31446 63.44
1713 5471119 359 69.86 31463 60.86
1714 5476693 334 61.44 31480 37.33
1715 5482705 184 31.36 31496 31.96
1716 5491868 96 21.67 31513 10.59
1717 5492063 675 317.99 31529 109.84
1718 5496600 332 61.17 31545 63.44
1719 5496942 462 120.87 31564 64.83
1720 5506246 432 101.61 31582 76.01
1721 5512852 319 57.64 31599 48.83
1722 5513689 295 51.75 31616 64.40
1723 5513805 440 109.25 31632 78.58
1724 5520250 487 132.65 31649 104.69
1725 5523176 312 55.68 31665 40.23
1726 5524070 480 130.21 31681 70.53
1727 5525047 344 64.67 31697 45.07
1728 5525244 519 154.30 31713 90.72
1729 5531068 263 45.37 31731 19.18
1730 5531253 387 81.05 31747 56.24
1731 5534288 384 80.08 31764 55.38
1732 5535221 113 23.02 31780 16.71
1733 5536587 295 51.75 31799 40.23
1734 5539455 63 17.91 31815 -6.49
1735 5540850 435 104.92 31832 86.32
1736 5545386 332 61.17 31848 34.76
1737 5546246 327 59.28 31864 39.59
1738 5547746 430 101.41 31880 83.74
1739 5549117 508 144.95 31896 102.11
1740 5551157 376 76.43 31913 65.69
1741 5554275 295 51.75 31929 48.94
1742 5561270 271 46.93 31946 25.41
1743 5566702 371 73.82 31962 63.44
1744 5566833 255 43.96 31978 43.35
1745 5567668 391 82.35 31994 62.15
1746 5584002 159 27.66 32062 6.07
1747 5585170 455 117.03 32078 87.29
1748 5586561 512 144.44 32147 108.55
1749 5587081 352 66.89 32162 64.83
1750 5588612 440 109.25 32178 89.22
1751 5594097 352 66.89 32194 61.72
1752 5594499 415 95.00 32210 75.68
1753 5595317 348 65.64 32226 47.97
1754 5599513 591 188.65 32243 88.14
1755 5601393 143 25.74 32260 16.71
1756 5602864 67 18.51 32276 9.30
1757 5603561 496 144.49 32292 83.53
1758 5605106 204 34.73 32308 1.24
1759 5606010 167 28.76 32324 19.61
1760 5606235 319 57.64 32340 42.92
1761 5606586 719 344.94 32356 130.90
1762 5609124 263 45.37 32376 33.57
1763 5609861 391 82.35 32393 51.84
1764 5614822 384 80.08 32409 64.19
1765 5617211 88 20.96 32426 -1.02
1766 5618297 335 61.77 32443 63.44
1767 5619976 319 57.64 32459 56.24
1768 5620151 268 46.26 32475 42.49
1769 5625479 451 113.08 32492 91.80
1770 5636213 399 87.30 32509 57.74
1771 5637647 319 57.64 32525 63.44
1772 5645980 339 62.98 32541 58.93
1773 5648138 472 125.87 32557 87.93
1774 5648391 220 37.58 32573 44.96
1775 5650727 323 58.48 32590 40.23
1776 5652413 163 28.20 32609 24.44
1777 5655259 419 97.20 32628 69.02
1778 5655352 361 70.62 32644 63.44
1779 5655929 335 61.77 32660 61.40
1780 5658923 384 80.08 32677 74.07
1781 5662568 399 87.30 32693 53.66
1782 5675572 344 64.67 32711 52.80
1783 5675783 307 54.48 32727 50.55
1784 5685274 307 54.48 32748 73.75
1785 5696785 319 57.64 32765 42.92
1786 5697061 371 73.82 32781 65.69
1787 5698565 355 68.30 32797 71.17
1788 5699126 364 71.71 32813 45.07
1789 5699745 551 164.56 32829 84.17
1790 5700988 481 129.57 32848 74.72
1791 5701201 312 55.68 32912 57.96
1792 5703046 359 69.86 32928 46.14
1793 5703134 108 22.63 32992 9.30
1794 5703790 497 142.37 33009 92.66
1795 5710271 355 68.30 33072 39.80
1796 5716417 480 130.21 33088 82.77
1797 5720976 430 101.41 33153 85.03
1798 5722126 415 95.00 33169 76.87
1799 5726994 112 22.94 33234 9.08
1800 5727493 412 92.93 33250 62.15
1801 5729387 355 68.30 33314 47.97
1802 5730888 312 55.68 33330 34.76
1803 5731216 384 80.08 33394 60.86
1804 5734866 451 113.08 33414 78.58
1805 5742474 307 54.48 33430 51.84
1806 5749233 419 97.20 33450 43.78
1807 5749742 96 21.67 33466 12.63
1808 5753948 271 46.93 33482 52.59
1809 5754614 399 87.30 33547 72.46
1810 5757763 384 80.08 33563 55.38
1811 5762917 408 90.57 33581 71.17
1812 5762973 376 76.43 33597 68.92
1813 5764986 327 59.28 33613 60.86
1814 5766626 561 174.17 33629 94.38
1815 5767215 216 36.85 33645 38.30
1816 5768756 312 55.68 33661 41.52
1817 5772666 364 71.71 33678 56.24
1818 5773096 414 93.93 33697 73.75
1819 5773679 312 55.68 33713 48.40
1820 5774909 287 50.23 33729 54.09
1821 5775657 433 104.37 33745 64.19
1822 5776775 344 64.67 33761 34.76
1823 5777715 408 90.57 33777 63.44
1824 5779664 207 35.26 33793 20.47
1825 5784884 319 57.64 33809 63.44
1826 5790458 152 26.78 33826 22.94
1827 5796892 291 50.97 33845 47.97
1828 5805792 268 46.26 33862 42.17
1829 5806778 415 95.00 33878 76.87
1830 5808014 312 55.68 33894 46.04
1831 5812330 326 59.13 33910 32.18
1832 5818385 675 317.99 33929 104.15
1833 5826349 335 61.77 33952 55.38
1834 5833487 355 68.30 33971 76.87
1835 5834546 327 59.28 33987 65.69
1836 5837985 339 62.98 34003 35.62
1837 5841943 508 144.95 34019 76.01
1838 5845658 102 22.15 34036 9.30
1839 5847402 312 55.68 34053 30.67
1840 5848584 344 64.67 34069 47.97
1841 5855329 371 73.82 34087 43.35
1842 5857802 305 53.88 34104 58.39
1843 5858297 102 22.15 34120 16.71
1844 5858729 327 59.28 34136 46.68
1845 5859289 312 55.68 34152 52.48
1846 5861394 419 97.20 34168 65.69
1847 5862552 287 50.23 34187 47.97
1848 5868690 428 101.58 34251 78.58
1849 5868936 462 120.87 34267 65.69
1850 5875759 543 164.77 34283 103.40
1851 5898445 353 67.64 34302 74.29
1852 5898882 248 42.69 34318 17.35
1853 5901247 472 125.87 34335 83.63
1854 5902855 339 62.98 34351 56.24
1855 5904049 387 81.05 34367 48.29
1856 5908278 399 87.30 34384 47.97
1857 5909124 327 59.28 34401 64.40
1858 5909279 352 66.89 34417 63.44
1859 5910900 236 40.44 34434 16.92
1860 5915971 102 22.15 34450 -4.13
1861 5917039 412 92.93 34477 61.72
1862 5917345 455 117.03 34493 81.48
1863 5917936 376 76.43 34509 76.87
1864 5918329 449 112.05 34525 86.32
1865 5921896 385 80.11 34541 73.75
1866 5923071 307 54.48 34557 62.15
1867 5936677 368 72.93 34575 43.35
1868 5936870 494 141.37 34591 82.77
1869 5937342 526 158.17 34607 94.38
1870 5941650 396 85.28 34624 55.38
1871 5950854 415 95.00 34641 72.03
1872 5955358 255 43.96 34705 48.94
1873 5956347 472 125.87 34721 73.75
1874 5957055 376 76.43 34737 73.75
1875 5959915 380 78.12 34756 52.80
1876 5964839 384 80.08 34775 67.30
1877 5969007 366 72.41 34793 74.50
1878 5969800 348 65.64 34809 68.59
1879 5971998 510 148.47 34825 84.28
1880 5973259 337 62.30 34841 71.17
1881 5974344 304 53.73 34857 37.01
1882 5974429 391 82.35 34873 58.60
1883 5978398 335 61.77 34889 35.62
1884 5984856 460 119.54 34905 74.72
1885 5992104 355 68.30 34922 71.17
1886 5995837 472 125.87 34938 78.58
1887 5997035 415 95.00 34954 78.80
1888 5998679 316 56.81 34970 62.15
1889 6004729 368 72.93 34993 77.62
1890 6005004 423 97.36 35009 81.48
1891 6005606 83 20.46 35025 21.65
1892 6006317 326 59.13 35041 37.33
1893 6007851 110 22.78 35057 10.59
1894 6008297 108 22.63 35073 -4.24
1895 6010778 316 56.81 35090 28.74
1896 6011592 319 57.64 35106 52.80
1897 6012238 364 71.71 35122 43.35
1898 6014178 376 76.43 35138 55.06
1899 6015258 512 144.44 35154 91.15
1900 6018293 401 87.91 35171 57.96
1901 6021406 103 22.23 35188 -2.95
1902 6022319 71 19.06 35204 1.67
1903 6023384 79 20.03 35223 -9.07
1904 6024607 444 109.09 35241 82.77
1905 6028907 319 57.64 35257 32.61
1906 6030441 339 62.98 35273 44.85
1907 6033589 387 81.05 35339 73.75
1908 6038305 403 88.99 35357 83.53
1909 6043893 305 53.88 35374 41.52
1910 6045583 327 59.28 35390 45.07
1911 6048500 135 24.92 35407 -3.92
1912 6049016 423 97.36 35423 62.15
1913 6050763 359 69.86 35440 68.92
1914 6051741 369 73.42 35456 52.59
1915 6054855 335 61.77 35474 51.84
1916 6056349 376 76.43 35491 73.75
1917 6057509 305 53.88 35508 61.72
1918 6059832 376 76.43 35527 51.84
1919 6062224 408 90.57 35543 63.97
1920 6068519 391 82.35 35561 69.56
1921 6069601 344 64.67 35577 55.60
1922 6073211 376 76.43 35594 65.69
1923 6080823 62 17.75 35613 -15.20
1924 6087997 167 28.76 35629 9.30
1925 6090645 355 68.30 35646 37.33
1926 6094533 352 66.89 35663 37.33
1927 6096321 415 95.00 35679 50.55
1928 6104178 412 92.93 35696 60.86
1929 6104323 304 53.73 35712 50.55
1930 6105372 359 69.86 35728 68.59
1931 6107706 255 43.96 35744 27.77
1932 6111026 368 72.93 35763 54.09
1933 6115893 463 119.23 35781 70.96
1934 6127570 483 132.60 35802 97.49
1935 6129450 240 41.21 35867 31.86
1936 6129763 376 76.43 35883 57.96
1937 6130374 307 54.48 35899 55.38
1938 6131032 216 36.85 35915 37.33
1939 6133341 409 91.12 35931 54.09
1940 6135547 312 55.68 35947 24.44
1941 6138522 305 53.88 35963 48.29
1942 6139643 542 168.67 35979 102.11
1943 6143768 83 20.46 35995 4.79
1944 6167023 344 64.67 36015 48.83
1945 6167685 419 97.20 36031 74.72
1946 6176225 361 70.62 36053 72.14
1947 6176553 352 66.89 36069 66.98
1948 6177232 124 23.92 36085 24.44
1949 6181645 319 57.64 36102 45.07
1950 6181740 455 117.03 36118 76.01
1951 6181855 376 76.43 36134 71.17
1952 6184814 352 66.89 36154 61.83
1953 6188081 270 46.71 36170 42.49
1954 6190803 609 211.41 36187 90.19
1955 6193021 519 154.30 36203 78.80
1956 6196561 355 68.30 36221 47.97
1957 6200399 280 48.67 36238 58.93
1958 6201268 134 24.82 36254 25.41
1959 6203040 476 129.76 36270 91.80
1960 6211646 531 160.62 36291 86.00
1961 6215153 51 15.86 36308 -7.78
1962 6217643 350 66.46 36324 51.84
1963 6219740 312 55.68 36340 44.96
1964 6220495 127 24.18 36356 20.47
1965 6227781 63 17.91 36374 3.82
1966 6231802 300 52.79 36439 52.48
1967 6234443 417 95.20 36456 63.44
1968 6241831 444 109.09 36475 63.44
1969 6243650 393 83.55 36491 63.44
1970 6259008 376 76.43 36510 48.18
1971 6268167 284 49.41 36527 45.07
1972 6268433 359 69.86 36543 59.25
1973 6273294 366 72.41 36560 60.86
1974 6276231 688 328.69 36579 118.87
1975 6286905 380 78.12 36596 50.55
1976 6289602 384 80.08 36612 73.75
1977 6295978 304 53.73 36630 40.99
1978 6300227 391 82.35 36648 56.99
1979 6300313 319 57.64 36664 55.27
1980 6301697 62 17.75 36681 9.30
1981 6302310 480 130.21 36697 78.58
1982 6304678 399 87.30 36713 73.75
1983 6310883 355 68.30 36729 55.06
1984 6312674 348 65.64 36745 41.52
1985 6316572 88 20.96 36761 -9.07
1986 6319355 435 104.92 36777 63.44
1987 6321813 391 82.35 36793 52.80
1988 6327718 403 88.99 36809 78.58
1989 6329055 480 130.21 36828 76.01
1990 6331765 334 61.44 36844 55.38
1991 6340076 462 120.87 36862 95.13
1992 6346781 575 187.30 36878 106.94
1993 6352413 92 21.32 36894 14.13
1994 6353181 399 87.30 36910 65.69
1995 6360121 209 35.61 36928 31.21
1996 6360206 312 55.68 36944 42.49
1997 6360775 384 80.08 36960 64.40
1998 6361830 167 28.76 37024 19.61
1999 6362427 415 95.00 37040 63.44
2000 6363289 387 81.05 37056 58.93
2001 6363467 423 97.36 37072 75.68
2002 6363793 316 56.81 37088 58.93
2003 6368200 398 85.63 37108 52.48
2004 6375934 384 80.08 37125 73.75
2005 6377931 176 30.09 37141 24.44
2006 6379882 327 59.28 37157 33.04
2007 6381941 831 853.96 37173 158.51
2008 6383709 611 211.89 37189 118.12
2009 6387726 366 72.41 37205 51.30
2010 6389921 312 55.68 37221 52.48
2011 6394511 423 97.36 37239 60.86
2012 6394564 403 88.99 37255 69.56
2013 6395681 384 80.08 37271 55.06
2014 6408750 300 52.79 37289 34.76
2015 6410511 335 61.77 37306 57.74
2016 6412465 352 66.89 37322 42.38
2017 6415886 339 62.98 37341 55.38
2018 6422636 350 66.46 37357 63.44
2019 6429054 359 69.86 37374 54.09
2020 6429576 376 76.43 37390 65.69
2021 6437492 220 37.58 37410 34.97
2022 6437647 206 35.07 37426 24.34
2023 6442195 440 109.25 37444 89.22
2024 6443160 323 58.48 37460 68.59
2025 6443270 193 32.84 37524 32.18
2026 6444613 291 50.97 37540 45.07
2027 6452195 312 55.68 37557 41.52
2028 6454282 254 43.77 37574 47.97
2029 6456053 332 61.17 37590 46.68
2030 6456136 129 24.35 37606 12.63
2031 6460793 78 19.92 37625 11.34
2032 6461847 376 76.43 37641 45.07
2033 6463512 384 80.08 37659 47.43
2034 6463813 332 61.17 37675 54.09
2035 6467167 366 72.41 37693 66.66
2036 6470473 312 55.68 37710 37.33
2037 6477753 364 71.71 37729 69.45
2038 6488165 399 87.30 37745 60.86
2039 6491503 387 81.05 37761 48.72
2040 6494903 248 42.69 37777 42.49
2041 6500048 353 67.64 37793 69.45
2042 6502085 304 53.73 37809 32.07
2043 6508438 481 129.57 37826 80.63
2044 6509749 254 43.77 37842 51.84
2045 6509807 387 81.05 37861 64.40
2046 6510475 304 53.73 37877 32.61
2047 6513485 304 53.73 37894 37.33
2048 6519690 323 58.48 37910 34.76
2049 6524410 335 61.77 37927 34.76
2050 6539914 451 113.08 37944 77.62
2051 6540159 408 90.57 37960 57.74
2052 6540685 423 97.36 37976 57.96
2053 6541043 334 61.44 37992 57.96
2054 6542051 492 134.92 38008 96.31
2055 6542428 419 97.20 38024 86.32
2056 6551600 312 55.68 38041 37.33
2057 6556355 113 23.02 38058 -9.07
2058 6557172 323 58.48 38074 47.97
2059 6560052 391 82.35 38093 55.06
2060 6565299 432 101.61 38110 52.59
2061 6565638 508 144.95 38174 92.66
2062 6565816 444 109.09 38190 89.22
2063 6567142 483 132.60 38206 99.21
2064 6567347 312 55.68 38222 65.69
2065 6575667 307 54.48 38241 47.97
2066 6577336 312 55.68 38257 52.80
2067 6583123 368 72.93 38273 40.99
2068 6585749 588 183.26 38289 116.93
2069 6588926 371 73.82 38306 74.72
2070 6590072 472 125.87 38322 93.09
2071 6592275 391 82.35 38338 54.09
2072 6599646 448 112.41 38356 82.77
2073 6602225 255 43.96 38376 63.76
2074 6602981 335 61.77 38392 50.55
2075 6605757 120 23.58 38408 11.88
2076 6610239 344 64.67 38426 56.24
2077 6618465 496 144.49 38442 95.34
2078 6624978 391 82.35 38460 66.66
2079 6625244 455 117.03 38476 83.42
2080 6637966 355 68.30 38492 40.99
2081 6643100 440 109.25 38508 73.75
2082 6649974 352 66.89 38525 54.20
2083 6651309 556 174.47 38542 96.31
2084 6654507 304 53.73 38606 32.18
2085 6659123 368 72.93 38622 63.97
2086 6662941 472 125.87 38638 91.80
2087 6663162 188 32.01 38657 40.23
2088 6663965 401 87.91 38673 72.14
2089 6667969 352 66.89 38690 64.19
2090 6669450 289 50.47 38706 38.19
2091 6670067 419 97.20 38722 55.38
2092 6671618 284 49.41 38739 50.55
2093 6671848 611 211.89 38755 95.13
2094 6672425 302 53.30 38771 40.23
2095 6675036 142 25.64 38787 3.82
2096 6679686 159 27.66 38803 11.34
2097 6680794 478 129.43 38820 90.08
2098 6682270 287 50.23 38837 52.59
2099 6684739 465 122.12 38853 60.86
2100 6694338 167 28.76 38870 19.61
2101 6696764 414 93.93 38887 57.64
2102 6698589 327 59.28 38906 46.36
2103 6698979 304 53.73 38922 50.55
2104 6699671 176 30.09 38938 27.34
2105 6702464 414 93.93 38954 55.06
2106 6703352 369 73.42 38971 76.87
2107 6705766 359 69.86 38988 60.86
2108 6714315 483 132.60 39006 68.06
2109 6714449 409 91.12 39022 75.68
2110 6718087 344 64.67 39038 64.40
2111 6719454 408 90.57 39054 60.86
2112 6720078 319 57.64 39070 57.96
2113 6720600 480 130.21 39086 69.13
2114 6720768 359 69.86 39102 65.91
2115 6720818 435 104.92 39118 77.62
2116 6721839 396 85.28 39137 78.80
2117 6722304 352 66.89 39153 70.96
2118 6727035 371 73.82 39170 65.69
2119 6730236 300 52.79 39187 43.35
2120 6742390 270 46.71 39207 30.57
2121 6742858 352 66.89 39223 53.66
2122 6747733 435 104.92 39239 58.17
2123 6751967 209 35.61 39255 42.49
2124 6753728 339 62.98 39319 53.55
2125 6754316 448 112.41 39335 67.30
2126 6763344 451 113.08 39353 74.29
2127 6765627 135 24.92 39370 5.64
2128 6768366 376 76.43 39387 74.72
2129 6774729 384 80.08 39404 51.84
2130 6780255 78 19.92 39423 7.58
2131 6780843 271 46.93 39439 25.41
2132 6780928 243 41.74 39455 26.70
2133 6785557 385 80.11 39471 65.69
2134 6786428 124 23.92 39488 0.27
2135 6789856 344 64.67 39506 69.45
2136 6790162 463 119.23 39522 73.75
2137 6792136 462 120.87 39539 102.11
2138 6792438 368 72.93 39556 74.50
2139 6792577 440 109.25 39572 83.42
2140 6804394 238 40.82 39592 17.57
2141 6806000 319 57.64 39608 43.35
2142 6810973 248 42.69 39625 25.41
2143 6812224 302 53.30 39690 58.93
2144 6812502 124 23.92 39709 18.96
2145 6814846 529 156.43 39725 103.40
2146 6815013 280 48.67 39741 42.71
2147 6824199 312 55.68 39758 44.75
2148 6825750 289 50.47 39776 42.49
2149 6829964 369 73.42 39792 73.75
2150 6830664 211 35.96 39808 20.90
2151 6841398 384 80.08 39824 51.19
2152 6841544 319 57.64 39840 51.30
2153 6845621 481 129.57 39857 77.62
2154 6850528 71 19.06 39875 -4.13
2155 6850628 455 117.03 39891 58.39
2156 6851685 291 50.97 39907 55.06
2157 6851730 387 81.05 39923 65.48
2158 6853850 335 61.77 39942 42.17
2159 6853905 120 23.58 39958 -1.66
2160 6854416 387 81.05 39975 64.19
2161 6861891 71 19.06 39994 14.13
2162 6864812 504 143.61 40010 91.80
2163 6870406 271 46.93 40027 44.75
2164 6880478 366 72.41 40045 47.97
2165 6881124 368 72.93 40061 53.34
2166 6882233 465 122.12 40077 68.59
2167 6890561 355 68.30 40094 50.55
2168 6891144 327 59.28 40110 40.23
2169 6895924 348 65.64 40127 66.66
2170 6896592 327 59.28 40143 60.86
2171 6897930 384 80.08 40159 45.07
2172 6907321 384 80.08 40179 54.09
2173 6908463 167 28.76 40195 18.54
2174 6909365 96 21.67 40212 15.21
2175 6913813 352 66.89 40230 68.81
2176 6917860 368 72.93 40248 76.01
2177 6921179 368 72.93 40264 65.69
2178 6923718 412 92.93 40280 55.06
2179 6927208 327 59.28 40297 48.40
2180 6927695 359 69.86 40313 63.44
2181 6929877 412 92.93 40331 66.98
2182 6932865 368 72.93 40348 65.69
2183 6933464 88 20.96 40364 -2.84
2184 6934616 408 90.57 40380 68.81
2185 6935967 319 57.64 40396 50.55
2186 6941010 312 55.68 40413 62.90
2187 6946269 560 175.34 40481 112.42
2188 6949834 504 143.61 40499 76.65
2189 6963783 359 69.86 40517 40.23
2190 6965601 207 35.26 40533 16.39
2191 6968807 352 66.89 40549 47.97
2192 6974700 295 51.75 40566 40.99
2193 6975425 391 82.35 40582 49.26
2194 6979823 398 85.63 40598 55.38
2195 6985142 412 92.93 40615 82.77
2196 6985866 415 95.00 40633 81.48
2197 6995117 428 101.58 40649 68.59
2198 7003567 142 25.64 40666 4.89
2199 7006524 344 64.67 40682 56.24
2200 7007649 287 50.23 40698 47.97
2201 7010864 387 81.05 40766 74.07
2202 7011337 415 95.00 40782 78.26
2203 7012891 359 69.86 40798 48.83
2204 7015179 519 154.30 40815 89.54
2205 7018662 499 141.24 40832 95.34
2206 7025429 415 95.00 40852 62.15
2207 7026003 508 144.95 40868 95.13
2208 7026519 359 69.86 40884 48.51
2209 7027292 368 72.93 40900 65.69
2210 7034087 496 144.49 40916 87.29
2211 7039839 216 36.85 40933 29.92
2212 7042731 463 119.23 40950 85.03
2213 7044685 419 97.20 40966 60.86
2214 7046112 63 17.91 40982 10.16
2215 7055908 460 119.54 41002 76.87
2216 7055975 384 80.08 41018 74.50
2217 7059124 318 57.28 41034 37.76
2218 7065366 376 76.43 41051 47.32
2219 7072402 540 166.11 41068 104.69
2220 7075100 316 56.81 41084 31.21
2221 7075133 519 154.30 41100 81.59
2222 7086328 307 54.48 41120 68.49
2223 7087185 268 46.26 41136 42.49
2224 7087342 192 32.67 41152 17.14
2225 7102916 339 62.98 41170 48.29
2226 7105423 423 97.36 41186 65.69
2227 7113520 385 80.11 41206 57.96
2228 7114486 366 72.41 41222 68.59
2229 7115088 376 76.43 41241 71.17
2230 7115753 79 20.03 41257 -2.63
2231 7121617 327 59.28 41273 32.18
2232 7129967 371 73.82 41291 52.80
2233 7137921 319 57.64 41307 60.86
2234 7140040 391 82.35 41323 68.59
2235 7142270 391 82.35 41339 67.95
2236 7142607 476 129.76 41355 89.22
2237 7144230 387 81.05 41371 55.38
2238 7145822 414 93.93 41387 65.59
2239 7148048 460 119.54 41403 68.70
2240 7155070 480 130.21 41420 104.69
2241 7155963 371 73.82 41436 82.77
2242 7157071 99 21.91 41452 24.44
2243 7157221 444 109.09 41471 68.59
2244 7158150 359 69.86 41487 69.56
2245 7158295 483 132.60 41503 89.33
2246 7161565 721 433.48 41519 124.99
2247 7162342 152 26.78 41535 44.75
2248 7167185 371 73.82 41553 69.56
2249 7169282 358 69.10 41569 40.23
2250 7172264 99 21.91 41634 -2.95
2251 7181086 211 35.96 41655 23.15
2252 7186161 344 64.67 41671 64.40
2253 7188207 273 47.25 41687 57.64
2254 7192948 398 85.63 41705 55.38
2255 7198900 270 46.71 41721 27.67
2256 7210920 384 80.08 41738 57.96
2257 7211662 312 55.68 41757 57.74
2258 7212309 543 164.77 41773 87.93
2259 7214961 240 41.21 41789 44.96
2260 7218095 451 113.08 41854 97.49
2261 7222782 192 32.67 41870 26.05
2262 7226035 415 95.00 41886 55.27
2263 7234337 364 71.71 41903 65.69
2264 7241276 798 700.68 41921 140.35
2265 7242850 440 109.25 41937 61.72
2266 7243476 572 183.73 41953 91.80
2267 7244043 384 80.08 41969 58.71
2268 7248360 271 46.93 41985 48.83
2269 7249502 318 57.28 42001 58.39
2270 7253859 334 61.44 42019 58.39
2271 7254122 673 288.87 42038 126.28
2272 7256386 417 95.20 42055 51.30
2273 7257396 380 78.12 42072 75.90
2274 7260010 60 17.43 42090 -8.43
2275 7261517 403 88.99 42106 69.56
2276 7261591 327 59.28 42122 59.25
2277 7271355 368 72.93 42141 74.72
2278 7272275 412 92.93 42157 81.48
2279 7274099 335 61.77 42173 45.07
2280 7274189 113 23.02 42189 10.16
2281 7281178 312 55.68 42208 46.04
2282 7285690 300 52.79 42226 34.65
2283 7286651 504 143.61 42242 91.80
2284 7287507 227 38.83 42258 30.67
2285 7289033 287 50.23 42275 47.97
2286 7289409 455 117.03 42294 79.87
2287 7291360 359 69.86 42310 73.75
2288 7294889 334 61.44 42327 56.24
2289 7303703 345 64.98 42345 47.32
2290 7309269 96 21.67 42362 0.27
2291 7312589 455 117.03 42379 86.00
2292 7313097 368 72.93 42396 54.41
2293 7317689 444 109.09 42412 58.82
2294 7329645 335 61.77 42429 72.03
2295 7329742 472 125.87 42445 87.93
2296 7331565 508 144.95 42461 79.55
2297 7334722 305 53.88 42477 40.99
2298 7334924 307 54.48 42493 46.04
2299 7337822 542 168.67 42509 91.80
2300 7343936 88 20.96 42530 -10.04
2301 7349150 327 59.28 42546 50.55
2302 7349709 412 92.93 42562 74.50
2303 7356385 465 122.12 42581 81.48
2304 7362273 230 39.39 42597 28.20
2305 7364423 302 53.30 42613 38.41
2306 7367113 230 39.39 42629 22.19
2307 7368921 398 85.63 42645 63.44
2308 7372874 302 53.30 42662 32.61
2309 7373786 353 67.64 42679 71.17
2310 7373830 348 65.64 42695 64.19
2311 7378062 88 20.96 42711 14.13
2312 7382254 432 101.61 42729 61.72
2313 7383340 263 45.37 42793 51.30
2314 7384118 415 95.00 42812 68.59
2315 7386717 391 82.35 42828 57.96
2316 7389552 335 61.77 42844 36.37
2317 7393755 435 104.92 42861 70.96
2318 7394699 519 154.30 42878 108.45
2319 7400941 423 97.36 42946 65.69
2320 7402827 319 57.64 42965 63.44
2321 7403690 428 101.58 42981 71.17
2322 7407194 508 144.95 42997 76.87
2323 7412628 348 65.64 43015 67.30
2324 7412725 252 43.42 43031 27.34
2325 7413607 369 73.42 43047 63.44
2326 7414242 103 22.23 43063 19.61
2327 7415975 348 65.64 43079 57.64
2328 7417582 440 109.25 43098 50.55
2329 7423461 110 22.78 43118 11.88
2330 7423560 355 68.30 43134 44.96
2331 7423649 79 20.03 43150 5.43
2332 7438623 304 53.73 43171 40.23
2333 7441755 384 80.08 43187 76.87
2334 7442311 344 64.67 43203 67.30
2335 7442780 304 53.73 43219 47.97
2336 7442928 252 43.42 43235 37.23
2337 7444589 423 97.36 43251 76.01
2338 7446889 448 112.41 43267 60.86
2339 7447365 323 58.48 43283 57.96
2340 7449995 390 82.70 43299 71.17
2341 7456753 380 78.12 43315 55.06
2342 7457280 280 48.67 43334 48.08
2343 7458194 540 166.11 43350 73.75
2344 7462032 504 143.61 43367 72.03
2345 7465456 368 72.93 43384 68.59
2346 7465539 403 88.99 43400 73.75
2347 7478268 561 174.17 43419 108.55
2348 7480003 385 80.11 43435 47.97
2349 7483373 327 59.28 43451 57.64
2350 7485169 294 51.51 43467 27.34
2351 7488527 369 73.42 43483 73.75
2352 7498351 455 117.03 43499 67.30
2353 7499150 327 59.28 43515 63.44
2354 7501397 391 82.35 43532 60.86
2355 7502068 355 68.30 43548 57.96
2356 7502841 387 81.05 43568 73.64
2357 7518899 312 55.68 43585 32.18
2358 7520508 390 82.70 43601 67.30
2359 7520680 368 72.93 43617 68.59
2360 7525450 332 61.17 43633 53.02
2361 7526032 496 144.49 43649 92.66
2362 7527710 412 92.93 43665 55.17
2363 7528287 344 64.67 43681 62.15
2364 7529538 184 31.36 43697 14.13
2365 7530271 319 57.64 43713 47.97
2366 7530401 284 49.41 43729 45.07
