##########################################################################################
### Pulsi_number Aeg[ms] ADC[0-1023] SiPM[mV] Surnud_aeg[ms] Temperatuur[C]
##########################################################################################
Olen Master nimega Sassu
1 250 51 15.86 0 23.15
2 265 51 15.86 14 -11.33
3 295 51 15.86 43 -24.86
4 321 51 15.86 69 -30.02
5 348 49 15.48 95 -31.95
6 376 51 15.86 121 -33.56
7 403 49 15.48 148 -34.53
8 432 51 15.86 176 -34.53
9 460 56 16.76 203 -34.42
10 491 51 15.86 233 -34.53
11 517 51 15.86 259 -34.53
12 547 49 15.48 287 -34.53
13 575 51 15.86 315 -34.32
14 604 49 15.48 343 -34.53
15 634 51 15.86 372 -34.53
16 662 51 15.86 400 -34.53
17 692 51 15.86 428 -34.53
18 721 54 16.41 456 -34.53
19 751 51 15.86 484 -34.53
20 779 51 15.86 512 -34.53
21 808 49 15.48 540 -34.53
22 838 51 15.86 568 -34.53
23 866 51 15.86 597 -34.53
24 896 49 15.48 625 -34.53
25 925 56 16.76 654 -34.53
26 953 51 15.86 682 -34.53
27 983 51 15.86 710 -34.53
28 1016 51 15.86 741 -34.53
29 1042 51 15.86 767 -34.53
30 1073 51 15.86 797 -34.53
31 1103 49 15.48 826 -34.53
32 1132 51 15.86 856 -34.53
33 1162 51 15.86 885 -34.53
34 1193 51 15.86 915 -34.53
35 1224 56 16.76 944 -34.42
36 1253 51 15.86 973 -34.53
37 1284 51 15.86 1003 -34.53
38 1315 51 15.86 1033 -34.53
39 1347 51 15.86 1064 -34.53
40 1377 51 15.86 1094 -34.53
41 1457 51 15.86 1173 -33.56
42 1473 51 15.86 1189 -34.53
43 1491 51 15.86 1205 -34.53
44 1507 51 15.86 1221 -34.53
45 1534 51 15.86 1247 -34.53
46 1568 51 15.86 1279 -34.53
47 1595 51 15.86 1306 -34.53
48 1627 51 15.86 1336 -34.53
49 1658 49 15.48 1366 -34.53
50 1690 51 15.86 1397 -34.53
51 1720 51 15.86 1427 -34.53
52 1751 51 15.86 1457 -34.53
53 1783 51 15.86 1487 -34.53
54 1813 51 15.86 1517 -34.53
55 1845 51 15.86 1548 -34.42
56 1876 51 15.86 1578 -34.53
57 1908 51 15.86 1609 -34.53
58 1939 51 15.86 1639 -34.32
59 1970 49 15.48 1669 -34.53
60 2002 51 15.86 1700 -34.53
61 2033 49 15.48 1730 -34.53
62 2063 51 15.86 1760 -34.53
63 2146 51 15.86 1842 -33.56
64 2164 49 15.48 1858 -34.53
65 2180 49 15.48 1874 -34.53
66 2196 51 15.86 1890 -34.53
67 2220 51 15.86 1913 -34.53
68 2252 51 15.86 1943 -34.53
69 2283 51 15.86 1974 -34.53
70 2314 51 15.86 2004 -34.53
71 2345 51 15.86 2034 -34.53
72 2377 49 15.48 2064 -34.53
73 2407 49 15.48 2095 -34.53
74 2439 51 15.86 2126 -34.53
75 2471 51 15.86 2157 -34.53
76 2502 49 15.48 2187 -34.53
77 2532 51 15.86 2217 -34.53
78 2563 49 15.48 2247 -34.53
79 2595 51 15.86 2278 -34.53
80 2629 49 15.48 2311 -34.53
81 2657 51 15.86 2339 -34.53
82 2689 51 15.86 2370 -34.32
83 2720 51 15.86 2400 -34.53
84 2751 49 15.48 2431 -34.53
85 2782 51 15.86 2461 -34.53
86 2814 56 16.76 2492 -34.53
87 2845 51 15.86 2522 -34.53
88 2875 49 15.48 2553 -34.53
89 2907 56 16.76 2583 -34.32
90 2938 51 15.86 2613 -34.53
91 2970 49 15.48 2644 -34.53
92 3000 51 15.86 2674 -34.53
93 3031 49 15.48 2705 -34.53
94 3063 51 15.86 2736 -34.53
95 3094 51 15.86 2767 -34.53
96 3125 51 15.86 2797 -34.53
97 3160 51 15.86 2830 -34.53
98 3188 49 15.48 2857 -34.53
99 3218 51 15.86 2888 -34.53
100 3299 51 15.86 2967 -34.42
101 3316 51 15.86 2983 -34.53
102 3333 51 15.86 2999 -34.53
103 3349 51 15.86 3015 -34.53
104 3379 51 15.86 3043 -34.53
105 3412 51 15.86 3075 -34.53
106 3443 49 15.48 3106 -34.53
107 3475 51 15.86 3138 -34.53
108 3508 56 16.76 3170 -34.32
109 3541 49 15.48 3202 -34.53
110 3573 51 15.86 3233 -34.53
111 3604 49 15.48 3264 -34.53
112 3637 51 15.86 3296 -34.42
113 3669 51 15.86 3327 -34.53
114 3704 49 15.48 3361 -34.53
115 3733 51 15.86 3390 -34.53
116 3765 51 15.86 3421 -34.53
117 3798 51 15.86 3452 -34.53
118 3830 49 15.48 3484 -34.53
119 3862 51 15.86 3515 -34.53
120 3894 56 16.76 3547 -34.21
121 3927 51 15.86 3578 -34.53
122 3959 51 15.86 3609 -34.53
123 3991 51 15.86 3641 -34.53
124 4023 51 15.86 3673 -34.53
125 4056 51 15.86 3704 -34.53
126 4137 51 15.86 3784 -33.56
127 4153 49 15.48 3800 -34.53
128 4170 51 15.86 3816 -34.53
129 4187 51 15.86 3832 -34.53
130 4220 51 15.86 3864 -34.53
131 4250 51 15.86 3892 -34.53
132 4282 56 16.76 3924 -34.32
133 4314 51 15.86 3955 -34.53
134 4346 49 15.48 3986 -34.53
135 4378 49 15.48 4018 -34.53
136 4410 51 15.86 4050 -34.53
137 4443 51 15.86 4082 -34.53
138 4475 51 15.86 4113 -34.53
139 4507 49 15.48 4144 -34.53
140 4539 49 15.48 4176 -34.53
141 4572 51 15.86 4208 -34.53
142 4604 51 15.86 4240 -34.53
143 4637 51 15.86 4271 -34.53
144 4668 51 15.86 4302 -34.53
145 4701 51 15.86 4333 -34.53
146 4733 51 15.86 4365 -34.42
147 4768 51 15.86 4399 -34.53
148 4797 51 15.86 4428 -34.53
149 4830 51 15.86 4459 -34.53
150 4862 51 15.86 4491 -34.42
151 4895 56 16.76 4523 -34.42
152 4926 56 16.76 4554 -34.53
153 4958 49 15.48 4585 -34.53
154 4991 51 15.86 4617 -34.53
155 5023 51 15.86 4648 -34.53
156 5055 51 15.86 4680 -34.53
157 5088 51 15.86 4711 -34.53
158 5120 51 15.86 4742 -34.53
159 5153 51 15.86 4774 -34.53
160 5234 51 15.86 4854 -33.56
161 5250 49 15.48 4870 -34.53
162 5266 51 15.86 4886 -34.53
163 5287 51 15.86 4905 -34.53
164 5313 49 15.48 4931 -34.53
165 5345 49 15.48 4962 -34.53
166 5378 51 15.86 4994 -34.53
167 5410 51 15.86 5026 -34.53
168 5443 51 15.86 5057 -34.53
169 5474 51 15.86 5088 -34.53
170 5507 51 15.86 5120 -34.42
171 5539 51 15.86 5151 -34.53
172 5572 51 15.86 5183 -34.53
173 5603 51 15.86 5214 -34.53
174 5636 51 15.86 5246 -34.53
175 5668 51 15.86 5277 -34.53
176 5701 51 15.86 5309 -34.53
177 5732 51 15.86 5341 -34.53
178 5765 51 15.86 5372 -34.53
179 5797 51 15.86 5403 -34.53
180 5832 51 15.86 5437 -34.53
181 5861 51 15.86 5465 -34.53
182 5893 49 15.48 5497 -34.53
183 5926 51 15.86 5529 -34.53
184 5958 49 15.48 5560 -34.53
185 5990 51 15.86 5592 -34.53
186 6022 51 15.86 5623 -34.53
187 6055 51 15.86 5655 -34.42
188 6087 49 15.48 5686 -34.53
189 6167 51 15.86 5766 -33.56
190 6185 51 15.86 5782 -34.53
191 6201 49 15.48 5798 -34.53
192 6218 51 15.86 5814 -34.53
193 6247 49 15.48 5843 -34.53
194 6280 51 15.86 5875 -34.53
195 6313 54 16.41 5907 -34.42
196 6348 51 15.86 5941 -34.53
197 6377 51 15.86 5970 -34.53
198 6410 51 15.86 6002 -34.53
199 6442 51 15.86 6033 -34.53
200 6475 49 15.48 6065 -34.53
201 6506 49 15.48 6097 -34.53
202 6538 49 15.48 6128 -34.53
203 6571 51 15.86 6160 -34.53
204 6603 51 15.86 6191 -34.53
205 6635 51 15.86 6223 -34.53
206 6667 51 15.86 6255 -34.53
207 6699 49 15.48 6286 -34.53
208 6732 49 15.48 6318 -34.53
209 6763 51 15.86 6349 -34.53
210 6796 49 15.48 6381 -34.53
211 6828 51 15.86 6412 -34.53
212 6861 49 15.48 6444 -34.53
213 6897 51 15.86 6479 -34.53
214 6925 51 15.86 6507 -34.53
215 6958 49 15.48 6539 -34.53
216 6990 49 15.48 6571 -34.53
217 7022 51 15.86 6602 -34.53
218 7054 51 15.86 6634 -34.53
219 7135 49 15.48 6714 -34.32
220 7152 51 15.86 6730 -34.53
221 7169 51 15.86 6746 -34.53
222 7185 51 15.86 6762 -34.53
223 7215 51 15.86 6791 -34.53
224 7248 51 15.86 6822 -34.53
225 7281 51 15.86 6854 -34.53
226 7312 51 15.86 6885 -34.53
227 7345 51 15.86 6917 -34.53
228 7377 51 15.86 6948 -34.53
229 7412 51 15.86 6982 -34.53
230 7441 51 15.86 7010 -34.53
231 7473 51 15.86 7041 -34.53
232 7506 51 15.86 7073 -34.42
233 7538 51 15.86 7104 -34.53
234 7570 49 15.48 7136 -34.53
235 7602 49 15.48 7167 -34.53
236 7634 56 16.76 7198 -34.53
237 7667 51 15.86 7230 -34.53
238 7699 51 15.86 7262 -34.53
239 7731 51 15.86 7293 -34.53
240 7764 49 15.48 7325 -34.53
241 7796 51 15.86 7356 -34.53
242 7828 51 15.86 7388 -34.32
243 7860 56 16.76 7419 -34.42
244 7893 51 15.86 7450 -34.53
245 7925 51 15.86 7481 -34.53
246 7959 49 15.48 7516 -34.53
247 7989 51 15.86 7544 -34.53
248 8021 51 15.86 7575 -34.53
249 8054 51 15.86 7607 -34.53
250 8085 51 15.86 7638 -34.53
251 8118 51 15.86 7670 -34.53
252 8199 51 15.86 7750 -33.56
253 8215 51 15.86 7766 -34.53
254 8233 51 15.86 7782 -34.53
255 8250 51 15.86 7798 -34.53
256 8279 49 15.48 7827 -34.53
257 8312 51 15.86 7858 -34.53
258 8343 51 15.86 7889 -34.53
259 8376 51 15.86 7921 -34.53
260 8408 51 15.86 7953 -34.53
261 8440 51 15.86 7984 -34.53
262 8476 49 15.48 8019 -34.53
263 8505 49 15.48 8048 -34.53
264 8537 51 15.86 8080 -34.53
265 8570 51 15.86 8112 -34.53
266 8602 51 15.86 8144 -34.53
267 8634 51 15.86 8176 -34.53
268 8666 51 15.86 8207 -34.53
269 8699 51 15.86 8239 -34.53
270 8731 51 15.86 8271 -34.53
271 8763 51 15.86 8302 -34.53
272 8795 51 15.86 8333 -34.53
273 8828 56 16.76 8365 -34.42
274 8860 51 15.86 8397 -34.53
275 8892 51 15.86 8428 -34.53
276 8924 51 15.86 8459 -34.53
277 8957 56 16.76 8491 -34.53
278 8989 51 15.86 8522 -34.53
279 9073 49 15.48 8605 -34.53
280 9089 51 15.86 8621 -34.53
281 9106 51 15.86 8637 -34.53
282 9124 49 15.48 8654 -34.53
283 9150 56 16.76 8681 -34.53
284 9183 51 15.86 8712 -34.53
285 9215 51 15.86 8743 -34.53
286 9247 49 15.48 8774 -34.53
287 9279 51 15.86 8806 -34.53
288 9312 51 15.86 8838 -34.53
289 9344 54 16.41 8869 -34.53
290 9376 51 15.86 8900 -34.53
291 9408 56 16.76 8932 -34.42
292 9441 51 15.86 8964 -34.53
293 9473 51 15.86 8995 -34.53
294 9506 51 15.86 9027 -34.53
295 9541 56 16.76 9062 -34.32
296 9569 51 15.86 9090 -34.53
297 9602 51 15.86 9122 -34.53
298 9635 51 15.86 9154 -34.53
299 9667 51 15.86 9185 -34.53
300 9699 56 16.76 9217 -34.21
301 9731 51 15.86 9248 -34.53
302 9763 51 15.86 9279 -34.53
303 9796 49 15.48 9310 -34.53
304 9828 51 15.86 9342 -34.53
305 9859 51 15.86 9373 -34.53
306 9892 51 15.86 9405 -34.53
307 9925 49 15.48 9437 -34.53
308 9956 51 15.86 9469 -34.53
309 9989 51 15.86 9500 -34.53
310 10021 51 15.86 9532 -34.53
311 10055 51 15.86 9565 -34.42
312 10090 56 16.76 9600 -34.42
313 10121 51 15.86 9630 -34.42
314 10154 51 15.86 9662 -34.53
315 10236 51 15.86 9743 -33.56
316 10253 51 15.86 9759 -34.53
317 10270 56 16.76 9775 -34.53
318 10287 51 15.86 9792 -34.53
319 10321 54 16.41 9825 -34.21
320 10354 51 15.86 9858 -34.42
321 10387 51 15.86 9890 -34.53
322 10420 51 15.86 9922 -34.53
323 10453 51 15.86 9954 -34.53
324 10487 51 15.86 9987 -34.42
325 10519 51 15.86 10019 -34.32
326 10554 51 15.86 10053 -34.32
327 10589 51 15.86 10087 -34.53
328 10626 51 15.86 10123 -34.42
329 10658 51 15.86 10154 -34.42
330 10693 51 15.86 10188 -34.53
331 10726 51 15.86 10221 -34.53
332 10760 49 15.48 10254 -34.53
333 10795 51 15.86 10288 -34.53
334 10829 51 15.86 10321 -34.53
335 10864 51 15.86 10354 -34.53
336 10898 51 15.86 10388 -34.53
337 10932 51 15.86 10422 -34.53
338 11015 51 15.86 10504 -33.56
339 11031 49 15.48 10520 -34.53
340 11049 51 15.86 10536 -34.53
341 11069 51 15.86 10556 -34.53
342 11104 54 16.41 10590 -34.53
343 11141 56 16.76 10627 -34.32
344 11172 49 15.48 10657 -34.53
345 11207 51 15.86 10691 -34.53
346 11241 56 16.76 10725 -34.32
347 11275 51 15.86 10758 -34.32
348 11310 51 15.86 10791 -34.53
349 11344 51 15.86 10824 -34.53
350 11379 49 15.48 10858 -34.53
351 11412 51 15.86 10891 -34.53
352 11447 51 15.86 10925 -34.53
353 11481 49 15.48 10958 -34.53
354 11515 51 15.86 10992 -34.53
355 11550 51 15.86 11026 -34.53
356 11584 54 16.41 11060 -34.21
357 11618 51 15.86 11093 -34.53
358 11653 51 15.86 11126 -34.53
359 11690 51 15.86 11163 -34.53
360 11722 56 16.76 11194 -34.21
361 11755 56 16.76 11227 -33.56
362 11790 56 16.76 11260 -33.56
363 11825 56 16.76 11293 -33.56
364 11859 49 15.48 11326 -34.53
365 11893 56 16.76 11360 -34.32
366 11929 51 15.86 11394 -34.53
367 11962 51 15.86 11427 -34.53
368 11996 51 15.86 11460 -34.53
369 12031 51 15.86 11494 -34.32
370 12065 51 15.86 11527 -34.53
371 12100 56 16.76 11560 -34.32
372 12133 51 15.86 11593 -34.53
373 12167 56 16.76 11626 -34.42
374 12205 51 15.86 11663 -34.42
375 12236 51 15.86 11694 -34.53
376 12271 56 16.76 11727 -34.42
377 12304 51 15.86 11760 -34.53
378 12388 51 15.86 11842 -32.17
379 12405 51 15.86 11858 -34.32
380 12421 56 16.76 11874 -34.32
381 12443 51 15.86 11894 -34.53
382 12476 51 15.86 11927 -34.53
383 12510 49 15.48 11960 -34.53
384 12545 56 16.76 11993 -34.32
385 12579 54 16.41 12027 -34.42
386 12614 54 16.41 12060 -34.53
387 12647 56 16.76 12093 -34.42
388 12682 49 15.48 12127 -34.53
389 12717 51 15.86 12161 -34.53
390 12755 51 15.86 12198 -34.53
391 12786 56 16.76 12228 -34.42
392 12819 51 15.86 12261 -34.53
393 12854 51 15.86 12295 -34.53
394 12888 51 15.86 12328 -34.53
395 12923 51 15.86 12361 -34.53
396 12957 51 15.86 12394 -34.53
397 13040 56 16.76 12476 -31.95
398 13057 51 15.86 12492 -34.32
399 13074 51 15.86 12508 -34.53
400 13094 51 15.86 12527 -34.53
401 13129 51 15.86 12561 -34.53
402 13163 51 15.86 12594 -34.53
403 13197 51 15.86 12627 -34.53
404 13231 51 15.86 12661 -34.53
405 13269 49 15.48 12698 -34.53
406 13301 56 16.76 12729 -34.53
407 13334 51 15.86 12763 -34.53
408 13369 51 15.86 12797 -34.53
409 13403 51 15.86 12830 -34.53
410 13437 56 16.76 12864 -34.42
411 13473 54 16.41 12898 -34.53
412 13507 51 15.86 12931 -34.53
413 13540 51 15.86 12964 -34.53
414 13575 51 15.86 12997 -34.53
415 13609 56 16.76 13030 -33.56
416 13643 49 15.48 13063 -34.53
417 13678 51 15.86 13097 -34.53
418 13712 51 15.86 13131 -34.53
419 13746 51 15.86 13164 -34.53
420 13781 51 15.86 13198 -34.53
421 13818 51 15.86 13235 -34.42
422 13850 51 15.86 13265 -34.53
423 13884 51 15.86 13299 -34.53
424 13918 51 15.86 13332 -34.53
425 13953 56 16.76 13366 -34.32
426 13987 51 15.86 13399 -34.53
427 14022 56 16.76 13432 -34.32
428 14055 51 15.86 13465 -34.53
429 14089 56 16.76 13498 -34.42
430 14124 56 16.76 13532 -34.53
431 14158 51 15.86 13566 -34.53
432 14193 49 15.48 13599 -34.53
433 14226 56 16.76 13633 -34.53
434 14261 51 15.86 13666 -34.53
435 14295 49 15.48 13700 -34.53
436 14333 51 15.86 13737 -34.53
437 14364 51 15.86 13767 -34.53
438 14398 51 15.86 13801 -34.53
439 14432 56 16.76 13834 -34.42
440 14467 51 15.86 13868 -34.53
441 14550 51 15.86 13950 -32.17
442 14567 51 15.86 13966 -34.21
443 14584 49 15.48 13982 -34.53
444 14604 51 15.86 14002 -34.53
445 14639 54 16.41 14035 -34.32
446 14673 51 15.86 14068 -34.53
447 14707 51 15.86 14102 -34.53
448 14741 51 15.86 14135 -34.53
449 14775 54 16.41 14168 -34.42
450 14810 51 15.86 14202 -34.53
451 14845 56 16.76 14236 -34.42
452 14882 51 15.86 14272 -34.53
453 14913 54 16.41 14303 -33.56
454 14947 51 15.86 14336 -34.42
455 14982 51 15.86 14370 -34.53
456 15065 56 16.76 14453 -31.95
457 15082 51 15.86 14469 -34.32
458 15100 51 15.86 14486 -34.53
459 15119 51 15.86 14505 -34.53
460 15153 51 15.86 14538 -34.53
461 15188 56 16.76 14571 -34.53
462 15222 51 15.86 14605 -34.53
463 15257 51 15.86 14638 -34.53
464 15290 51 15.86 14671 -34.42
465 15325 49 15.48 14704 -34.53
466 15359 49 15.48 14738 -34.53
467 15397 51 15.86 14775 -34.53
468 15428 56 16.76 14805 -34.32
469 15462 51 15.86 14839 -34.53
470 15496 49 15.48 14872 -34.53
471 15531 51 15.86 14906 -34.42
472 15566 51 15.86 14940 -34.53
473 15600 51 15.86 14973 -34.53
474 15633 49 15.48 15007 -34.53
475 15669 51 15.86 15041 -34.53
476 15703 51 15.86 15075 -34.53
477 15737 51 15.86 15108 -34.32
478 15772 49 15.48 15142 -34.53
479 15805 51 15.86 15176 -34.53
480 15840 51 15.86 15210 -34.53
481 15875 51 15.86 15243 -34.42
482 15908 51 15.86 15276 -34.53
483 15946 49 15.48 15313 -34.53
484 15976 51 15.86 15344 -34.53
485 16011 51 15.86 15378 -34.53
486 16046 49 15.48 15412 -34.53
487 16080 51 15.86 15446 -34.42
488 16115 54 16.41 15479 -34.21
489 16149 51 15.86 15513 -34.53
490 16183 51 15.86 15546 -34.53
491 16217 49 15.48 15579 -34.53
492 16252 56 16.76 15613 -34.53
493 16287 56 16.76 15647 -34.32
494 16320 51 15.86 15680 -34.42
495 16354 51 15.86 15713 -34.53
496 16389 51 15.86 15747 -34.53
497 16423 51 15.86 15780 -34.53
498 16461 51 15.86 15816 -34.32
499 16492 51 15.86 15847 -34.42
500 16526 51 15.86 15880 -34.53
501 16560 51 15.86 15914 -34.53
502 16595 49 15.48 15947 -34.53
503 16630 51 15.86 15981 -34.42
504 16712 49 15.48 16063 -34.42
505 16729 56 16.76 16079 -34.42
506 16745 56 16.76 16095 -34.53
507 16766 56 16.76 16115 -34.53
508 16801 51 15.86 16148 -34.53
509 16836 49 15.48 16182 -34.53
510 16869 51 15.86 16215 -34.53
511 16903 51 15.86 16248 -34.53
512 16938 49 15.48 16281 -34.53
513 16973 51 15.86 16315 -34.53
514 17010 51 15.86 16351 -34.53
515 17091 51 15.86 16431 -33.56
516 17107 56 16.76 16447 -33.56
517 17124 51 15.86 16464 -34.53
518 17144 51 15.86 16483 -34.53
519 17179 49 15.48 16516 -34.53
520 17212 51 15.86 16550 -34.53
521 17247 51 15.86 16584 -34.53
522 17281 51 15.86 16617 -34.53
523 17316 51 15.86 16650 -34.53
524 17351 51 15.86 16684 -34.53
525 17384 56 16.76 16717 -34.32
526 17419 51 15.86 16750 -34.42
527 17453 51 15.86 16783 -34.53
528 17488 51 15.86 16817 -34.53
529 17525 51 15.86 16853 -34.53
530 17555 51 15.86 16883 -34.53
531 17590 51 15.86 16916 -34.53
532 17624 51 15.86 16950 -34.53
533 17659 51 15.86 16984 -34.53
534 17694 51 15.86 17017 -34.53
535 17727 51 15.86 17051 -34.42
536 17762 51 15.86 17084 -34.53
537 17796 48 15.29 17117 -34.53
538 17831 51 15.86 17151 -34.53
539 17865 51 15.86 17184 -34.53
540 17899 51 15.86 17218 -34.42
541 17933 51 15.86 17251 -34.53
542 17968 51 15.86 17285 -34.42
543 18003 51 15.86 17319 -34.53
544 18037 54 16.41 17352 -34.53
545 18074 56 16.76 17388 -34.53
546 18104 49 15.48 17419 -34.53
547 18139 51 15.86 17453 -34.53
548 18174 49 15.48 17487 -34.53
549 18208 51 15.86 17520 -34.53
550 18243 51 15.86 17553 -34.53
551 18277 56 16.76 17587 -34.32
552 18311 51 15.86 17620 -34.42
553 18346 51 15.86 17654 -34.53
554 18380 56 16.76 17687 -34.32
555 18415 51 15.86 17720 -34.53
556 18448 51 15.86 17753 -34.53
557 18483 51 15.86 17787 -34.53
558 18517 51 15.86 17820 -34.53
559 18551 51 15.86 17854 -34.53
560 18589 51 15.86 17891 -34.53
561 18619 56 16.76 17921 -34.32
562 18654 56 16.76 17955 -34.42
563 18688 51 15.86 17988 -34.42
564 18723 51 15.86 18022 -34.42
565 18758 56 16.76 18055 -34.32
566 18791 49 15.48 18088 -34.53
567 18874 56 16.76 18170 -33.56
568 18891 49 15.48 18186 -34.53
569 18907 51 15.86 18202 -34.53
570 18929 51 15.86 18222 -34.53
571 18962 51 15.86 18255 -34.53
572 18997 56 16.76 18289 -34.32
573 19032 51 15.86 18323 -34.42
574 19066 51 15.86 18356 -34.53
575 19149 51 15.86 18438 -33.56
576 19168 51 15.86 18457 -34.53
577 19186 51 15.86 18473 -34.53
578 19203 49 15.48 18490 -34.53
579 19238 56 16.76 18523 -34.53
580 19272 51 15.86 18556 -34.53
581 19306 51 15.86 18590 -34.53
582 19341 56 16.76 18624 -34.32
583 19375 51 15.86 18657 -34.53
584 19410 51 15.86 18691 -34.53
585 19444 51 15.86 18724 -34.53
586 19477 48 15.29 18758 -34.53
587 19512 56 16.76 18791 -34.53
588 19546 56 16.76 18824 -34.42
589 19581 56 16.76 18858 -34.42
590 19615 51 15.86 18891 -34.53
591 19653 51 15.86 18928 -34.53
592 19684 56 16.76 18959 -34.53
593 19718 51 15.86 18992 -34.53
594 19753 51 15.86 19026 -34.53
595 19787 49 15.48 19059 -34.53
596 19820 51 15.86 19093 -34.53
597 19855 54 16.41 19127 -34.42
598 19889 49 15.48 19160 -34.53
599 19924 56 16.76 19194 -34.21
600 19958 49 15.48 19227 -34.53
601 19993 56 16.76 19261 -34.42
602 20026 49 15.48 19294 -34.53
603 20061 51 15.86 19328 -34.53
604 20096 49 15.48 19362 -34.53
605 20130 51 15.86 19396 -34.53
606 20164 49 15.48 19429 -34.53
607 20201 56 16.76 19466 -34.32
608 20233 51 15.86 19496 -34.53
609 20267 51 15.86 19529 -34.53
610 20302 51 15.86 19563 -34.53
611 20336 51 15.86 19597 -34.53
612 20370 56 16.76 19631 -34.42
613 20404 51 15.86 19664 -34.53
614 20439 51 15.86 19698 -34.53
615 20473 49 15.48 19732 -34.53
616 20508 56 16.76 19766 -34.32
617 20541 56 16.76 19799 -34.32
618 20576 54 16.41 19833 -34.32
619 20611 51 15.86 19866 -34.53
620 20645 51 15.86 19899 -34.53
621 20679 51 15.86 19932 -34.53
622 20716 51 15.86 19968 -34.42
623 20747 51 15.86 19998 -34.53
624 20782 56 16.76 20032 -34.42
625 20816 51 15.86 20065 -34.53
626 20851 51 15.86 20099 -34.53
627 20884 51 15.86 20132 -34.53
628 20919 49 15.48 20166 -34.53
629 20953 56 16.76 20199 -34.32
630 21036 56 16.76 20281 -31.95
631 21053 51 15.86 20297 -34.53
632 21070 51 15.86 20313 -34.53
633 21091 51 15.86 20333 -34.53
634 21173 48 15.29 20415 -34.53
635 21191 51 15.86 20431 -34.53
636 21207 51 15.86 20447 -34.53
637 21227 54 16.41 20467 -34.53
638 21265 51 15.86 20504 -34.42
639 21297 56 16.76 20535 -34.53
640 21331 51 15.86 20568 -34.53
641 21365 51 15.86 20601 -34.53
642 21401 51 15.86 20635 -34.53
643 21433 51 15.86 20668 -34.53
644 21468 51 15.86 20702 -34.53
645 21503 51 15.86 20736 -34.53
646 21537 49 15.48 20769 -34.53
647 21572 51 15.86 20802 -34.53
648 21605 51 15.86 20835 -34.53
649 21640 56 16.76 20869 -34.32
650 21674 56 16.76 20902 -33.56
651 21709 51 15.86 20935 -34.42
652 21743 51 15.86 20969 -34.53
653 21777 51 15.86 21003 -34.53
654 21809 51 15.86 21034 -34.53
655 21846 51 15.86 21070 -34.53
656 21881 51 15.86 21104 -34.53
657 21915 51 15.86 21137 -34.53
658 21948 49 15.48 21171 -34.53
659 21983 51 15.86 21205 -34.53
660 22018 51 15.86 21239 -34.53
661 22052 51 15.86 21272 -34.53
662 22086 54 16.41 21305 -34.53
663 22120 51 15.86 21339 -34.32
664 22155 51 15.86 21372 -34.53
665 22189 56 16.76 21405 -34.32
666 22223 51 15.86 21439 -34.53
667 22258 56 16.76 21473 -33.56
668 22291 49 15.48 21506 -34.53
669 22329 51 15.86 21543 -34.53
670 22360 51 15.86 21573 -34.53
671 22395 51 15.86 21607 -34.32
672 22430 51 15.86 21641 -34.42
673 22463 56 16.76 21674 -34.32
674 22498 56 16.76 21708 -33.56
675 22532 56 16.76 21741 -33.56
676 22567 51 15.86 21774 -34.32
677 22601 51 15.86 21807 -34.53
678 22635 51 15.86 21841 -34.53
679 22669 51 15.86 21875 -34.53
680 22704 51 15.86 21908 -34.53
681 22738 51 15.86 21941 -34.53
682 22773 51 15.86 21975 -34.53
683 22806 51 15.86 22009 -34.53
684 22841 51 15.86 22042 -34.53
685 22878 51 15.86 22079 -34.53
686 22910 51 15.86 22109 -34.53
687 22945 56 16.76 22143 -33.56
688 22979 51 15.86 22177 -34.53
689 23012 49 15.48 22210 -34.53
690 23047 51 15.86 22244 -34.53
691 23082 54 16.41 22278 -34.32
692 23116 51 15.86 22311 -34.53
693 23199 56 16.76 22393 -31.95
694 23264 51 15.86 22458 -31.95
695 23281 56 16.76 22474 -33.56
696 23298 56 16.76 22490 -34.32
697 23316 51 15.86 22508 -34.53
698 23350 54 16.41 22541 -34.42
699 23384 56 16.76 22574 -34.53
700 23422 56 16.76 22611 -33.56
701 23453 54 16.41 22641 -34.42
702 23487 54 16.41 22675 -34.32
703 23521 49 15.48 22708 -34.53
704 23556 56 16.76 22742 -34.32
705 23590 49 15.48 22776 -34.53
706 23625 49 15.48 22809 -34.53
707 23659 56 16.76 22843 -34.53
708 23693 51 15.86 22876 -34.53
709 23728 51 15.86 22910 -34.42
710 23763 56 16.76 22944 -34.53
711 23797 56 16.76 22977 -34.53
712 23830 51 15.86 23011 -34.53
713 23865 51 15.86 23045 -34.53
714 23899 56 16.76 23078 -34.42
715 23934 49 15.48 23112 -34.53
716 23971 51 15.86 23149 -34.53
717 24003 49 15.48 23180 -34.53
718 24036 54 16.41 23213 -34.53
719 24071 51 15.86 23247 -34.53
720 24106 51 15.86 23281 -34.42
721 24140 51 15.86 23315 -34.42
722 24174 51 15.86 23348 -34.53
723 24208 51 15.86 23382 -34.53
724 24243 56 16.76 23416 -34.32
725 24277 56 16.76 23449 -34.32
726 24311 49 15.48 23483 -34.53
727 24346 51 15.86 23517 -34.53
728 24379 49 15.48 23550 -34.53
729 24414 51 15.86 23584 -34.32
730 24449 51 15.86 23617 -34.42
731 24486 51 15.86 23653 -34.53
732 24518 51 15.86 23684 -34.42
733 24552 51 15.86 23718 -34.42
734 24586 56 16.76 23751 -34.42
735 24620 51 15.86 23784 -34.42
736 24654 49 15.48 23817 -34.53
737 24689 51 15.86 23851 -34.53
738 24722 49 15.48 23884 -34.53
739 24757 56 16.76 23918 -34.32
740 24792 49 15.48 23952 -34.53
741 24826 51 15.86 23986 -34.53
742 24861 56 16.76 24019 -34.42
743 24894 51 15.86 24052 -34.53
744 24929 51 15.86 24086 -34.32
745 24963 56 16.76 24120 -33.56
746 24998 51 15.86 24153 -34.32
747 25035 56 16.76 24189 -34.21
748 25066 51 15.86 24220 -34.53
749 25100 51 15.86 24254 -34.53
750 25134 49 15.48 24287 -34.53
751 25169 54 16.41 24321 -34.42
752 25204 56 16.76 24355 -34.32
753 25286 49 15.48 24437 -34.53
754 25303 51 15.86 24453 -34.53
755 25319 51 15.86 24469 -34.53
756 25389 51 15.86 24538 -33.56
757 25405 49 15.48 24554 -34.53
758 25422 56 16.76 24570 -34.53
759 25443 51 15.86 24590 -34.53
760 25478 56 16.76 24624 -34.53
761 25512 51 15.86 24657 -34.53
762 25550 51 15.86 24694 -34.32
763 25582 51 15.86 24725 -34.53
764 25615 51 15.86 24758 -34.53
765 25649 49 15.48 24791 -34.53
766 25685 51 15.86 24825 -34.53
767 25719 56 16.76 24858 -34.42
768 25753 51 15.86 24891 -34.42
769 25787 56 16.76 24924 -34.32
770 25821 56 16.76 24957 -34.53
771 25856 54 16.41 24991 -34.53
772 25890 56 16.76 25025 -34.21
773 25924 49 15.48 25058 -34.53
774 25958 51 15.86 25092 -34.53
775 25992 49 15.48 25126 -34.53
776 26027 49 15.48 25160 -34.53
777 26062 54 16.41 25194 -34.53
778 26099 56 16.76 25230 -34.42
779 26130 56 16.76 25261 -34.53
780 26165 56 16.76 25295 -34.42
781 26199 49 15.48 25328 -34.53
782 26233 51 15.86 25362 -34.53
783 26268 51 15.86 25396 -34.42
784 26301 51 15.86 25429 -34.53
785 26336 51 15.86 25462 -34.53
786 26370 51 15.86 25495 -34.42
787 26405 51 15.86 25528 -34.53
788 26439 56 16.76 25562 -34.32
789 26473 49 15.48 25595 -34.53
790 26507 51 15.86 25629 -34.53
791 26542 56 16.76 25663 -34.21
792 26576 49 15.48 25697 -34.53
793 26614 56 16.76 25734 -34.32
794 26644 56 16.76 25765 -34.42
795 26679 54 16.41 25798 -34.42
796 26714 51 15.86 25832 -34.53
797 26748 51 15.86 25865 -34.53
798 26782 56 16.76 25898 -34.42
799 26816 51 15.86 25932 -33.56
800 26851 49 15.48 25965 -34.53
801 26885 56 16.76 25998 -34.42
802 26919 49 15.48 26032 -34.53
803 26954 56 16.76 26066 -34.42
804 26988 56 16.76 26099 -34.32
805 27023 49 15.48 26133 -34.53
806 27057 51 15.86 26166 -34.53
807 27091 51 15.86 26199 -34.53
808 27126 51 15.86 26232 -34.53
809 27163 51 15.86 26268 -34.32
810 27194 56 16.76 26299 -34.42
811 27228 56 16.76 26332 -34.32
812 27311 51 15.86 26414 -33.56
813 27327 51 15.86 26430 -34.53
814 27345 56 16.76 26446 -34.53
815 27365 51 15.86 26466 -34.53
816 27399 49 15.48 26499 -34.53
817 27434 56 16.76 26533 -34.32
818 27469 51 15.86 26566 -34.42
819 27552 54 16.41 26648 -33.56
820 27568 51 15.86 26664 -34.42
821 27585 49 15.48 26680 -34.53
822 27606 56 16.76 26700 -34.53
823 27641 49 15.48 26734 -34.53
824 27678 51 15.86 26771 -34.53
825 27708 51 15.86 26801 -34.53
826 27743 56 16.76 26835 -33.56
827 27778 56 16.76 26869 -33.56
828 27812 51 15.86 26902 -34.53
829 27846 54 16.41 26936 -34.42
830 27881 56 16.76 26970 -33.56
831 27914 51 15.86 27003 -34.32
832 27949 51 15.86 27037 -34.53
833 27983 51 15.86 27070 -34.53
834 28018 56 16.76 27104 -33.56
835 28051 49 15.48 27137 -34.53
836 28086 51 15.86 27171 -34.53
837 28120 51 15.86 27205 -34.53
838 28155 51 15.86 27239 -34.53
839 28190 51 15.86 27272 -34.32
840 28227 56 16.76 27308 -34.32
841 28257 49 15.48 27338 -34.53
842 28292 51 15.86 27372 -34.53
843 28327 49 15.48 27405 -34.53
844 28362 54 16.41 27439 -34.53
845 28395 51 15.86 27472 -34.53
846 28429 56 16.76 27506 -33.56
847 28464 51 15.86 27539 -33.56
848 28498 56 16.76 27573 -33.56
849 28533 51 15.86 27606 -34.21
850 28566 51 15.86 27639 -34.53
851 28601 51 15.86 27673 -34.53
852 28635 56 16.76 27706 -34.42
853 28670 51 15.86 27740 -34.42
854 28704 49 15.48 27773 -34.53
855 28742 51 15.86 27810 -34.53
856 28772 51 15.86 27841 -34.53
857 28807 51 15.86 27874 -34.53
858 28842 56 16.76 27908 -34.53
859 28876 51 15.86 27942 -34.53
860 28911 51 15.86 27976 -34.42
861 28944 56 16.76 28010 -33.78
862 28979 56 16.76 28044 -33.56
863 29013 51 15.86 28077 -34.42
864 29048 51 15.86 28111 -34.42
865 29083 51 15.86 28145 -34.32
866 29116 51 15.86 28179 -34.53
867 29150 51 15.86 28212 -34.53
868 29185 51 15.86 28246 -34.53
869 29219 51 15.86 28280 -34.53
870 29254 56 16.76 28313 -34.53
871 29339 51 15.86 28398 -33.56
872 29356 49 15.48 28414 -34.53
873 29372 51 15.86 28430 -34.53
874 29391 51 15.86 28447 -34.53
875 29426 51 15.86 28481 -34.53
876 29459 51 15.86 28514 -34.53
877 29494 51 15.86 28548 -34.53
878 29528 51 15.86 28581 -34.53
879 29563 56 16.76 28615 -34.42
880 29598 49 15.48 28649 -34.53
881 29631 56 16.76 28682 -34.53
882 29714 51 15.86 28765 -33.56
883 29731 56 16.76 28781 -34.32
884 29748 51 15.86 28797 -34.53
885 29769 51 15.86 28817 -34.53
886 29854 51 15.86 28902 -33.56
887 29871 49 15.48 28918 -34.53
888 29888 56 16.76 28934 -34.42
889 29906 51 15.86 28951 -34.53
890 29941 51 15.86 28985 -34.32
891 29974 56 16.76 29018 -34.42
892 30009 51 15.86 29051 -34.53
893 30043 51 15.86 29084 -34.53
894 30078 56 16.76 29118 -34.42
895 30113 56 16.76 29151 -33.56
896 30147 56 16.76 29184 -33.56
897 30181 56 16.76 29217 -33.56
898 30215 51 15.86 29251 -34.32
899 30249 49 15.48 29284 -34.53
900 30284 56 16.76 29318 -34.53
901 30319 51 15.86 29352 -34.53
902 30355 51 15.86 29389 -34.21
903 30387 54 16.41 29419 -34.42
904 30422 51 15.86 29453 -34.32
905 30456 51 15.86 29486 -34.53
906 30490 51 15.86 29519 -34.53
907 30523 49 15.48 29552 -34.53
908 30558 56 16.76 29586 -34.42
909 30593 51 15.86 29620 -34.53
910 30627 51 15.86 29654 -34.42
911 30662 51 15.86 29688 -34.42
912 30695 51 15.86 29721 -34.53
913 30730 51 15.86 29754 -34.53
914 30765 51 15.86 29788 -34.53
915 30799 51 15.86 29821 -34.53
916 30833 49 15.48 29855 -34.53
917 30871 56 16.76 29892 -34.32
918 30901 49 15.48 29922 -34.53
919 30936 51 15.86 29955 -34.53
920 30970 56 16.76 29989 -34.42
921 31005 51 15.86 30023 -34.53
922 31038 54 16.41 30057 -34.53
923 31073 51 15.86 30091 -34.42
924 31108 56 16.76 30125 -33.56
925 31142 51 15.86 30158 -34.42
926 31177 56 16.76 30191 -33.56
927 31210 56 16.76 30224 -33.56
928 31244 56 16.76 30257 -33.56
929 31279 51 15.86 30291 -34.42
930 31313 51 15.86 30325 -34.53
931 31348 49 15.48 30358 -34.53
932 31381 49 15.48 30392 -34.53
933 31419 56 16.76 30429 -34.32
934 31499 51 15.86 30508 -33.56
935 31516 51 15.86 30524 -34.53
936 31580 51 15.86 30588 -34.42
937 31596 51 15.86 30604 -34.53
938 31661 51 15.86 30668 -33.56
939 31678 51 15.86 30684 -34.53
940 31743 51 15.86 30748 -33.56
941 31760 56 16.76 30764 -33.56
942 31825 51 15.86 30828 -33.56
943 31842 51 15.86 30844 -34.53
944 31907 49 15.48 30908 -34.53
945 31971 49 15.48 30973 -34.53
946 32036 56 16.76 31037 -32.17
947 32053 51 15.86 31053 -34.42
948 32121 56 16.76 31120 -33.56
949 32138 51 15.86 31136 -34.42
950 32155 51 15.86 31152 -34.53
951 32173 51 15.86 31170 -34.53
952 32208 51 15.86 31203 -34.53
953 32242 56 16.76 31237 -34.21
954 32276 51 15.86 31270 -34.53
955 32310 49 15.48 31303 -34.53
956 32345 56 16.76 31337 -34.42
957 32380 51 15.86 31371 -34.53
958 32414 51 15.86 31404 -34.53
959 32447 49 15.48 31437 -34.53
960 32482 51 15.86 31471 -34.53
961 32516 49 15.48 31505 -34.53
962 32551 51 15.86 31539 -34.53
963 32585 56 16.76 31572 -34.32
964 32623 49 15.48 31609 -34.53
965 32653 54 16.41 31640 -34.53
966 32688 51 15.86 31673 -34.53
967 32722 49 15.48 31707 -34.53
968 32757 51 15.86 31741 -34.53
969 32791 51 15.86 31775 -34.53
970 32825 56 16.76 31808 -34.53
971 32860 51 15.86 31842 -34.53
972 32894 51 15.86 31876 -34.53
973 32929 49 15.48 31910 -34.53
974 32963 51 15.86 31944 -34.53
975 32996 51 15.86 31977 -34.53
976 33031 56 16.76 32011 -34.42
977 33065 51 15.86 32044 -34.53
978 33100 51 15.86 32078 -34.53
979 33137 49 15.48 32115 -34.53
980 33168 49 15.48 32146 -34.53
981 33203 51 15.86 32180 -34.53
982 33237 51 15.86 32213 -34.53
983 33272 49 15.48 32247 -34.53
984 33306 51 15.86 32281 -34.53
985 33340 51 15.86 32315 -34.53
986 33374 51 15.86 32349 -34.53
987 33409 56 16.76 32383 -34.42
988 33444 56 16.76 32417 -34.21
989 33478 51 15.86 32451 -34.53
990 33512 51 15.86 32484 -34.53
991 33546 51 15.86 32517 -34.53
992 33580 51 15.86 32550 -34.53
993 33616 51 15.86 32584 -34.32
994 33650 51 15.86 32617 -34.32
995 33686 56 16.76 32653 -33.56
996 33718 51 15.86 32684 -34.53
997 33752 51 15.86 32717 -34.42
998 33786 51 15.86 32750 -34.53
999 33821 51 15.86 32784 -34.53
1000 33854 56 16.76 32818 -33.56
1001 33890 49 15.48 32853 -34.42
1002 33925 56 16.76 32887 -34.42
1003 33961 51 15.86 32922 -34.53
1004 33996 51 15.86 32956 -34.53
1005 34032 54 16.41 32991 -34.42
1006 34067 56 16.76 33026 -33.56
1007 34151 51 15.86 33109 -31.95
1008 34217 56 16.76 33174 -31.95
1009 34233 51 15.86 33190 -33.56
1010 34261 51 15.86 33217 -34.32
1011 34278 49 15.48 33233 -34.53
1012 34307 51 15.86 33261 -34.53
1013 34343 56 16.76 33296 -34.32
1014 34378 51 15.86 33330 -34.53
1015 34414 49 15.48 33365 -34.53
1016 34448 51 15.86 33400 -34.53
1017 34484 56 16.76 33434 -34.21
1018 34519 56 16.76 33468 -33.56
1019 34555 56 16.76 33503 -31.95
1020 34591 51 15.86 33538 -31.95
1021 34625 56 16.76 33572 -31.95
1022 34661 56 16.76 33606 -31.95
1023 34696 51 15.86 33640 -33.56
1024 34731 56 16.76 33674 -33.56
1025 34770 51 15.86 33712 -34.32
1026 34803 56 16.76 33744 -34.42
1027 34837 51 15.86 33778 -34.53
1028 34873 54 16.41 33813 -34.53
1029 34908 56 16.76 33847 -34.32
1030 34944 51 15.86 33882 -34.42
1031 34979 51 15.86 33916 -34.53
1032 35015 56 16.76 33950 -34.42
1033 35049 54 16.41 33984 -34.42
1034 35085 51 15.86 34018 -34.53
1035 35120 51 15.86 34052 -34.32
1036 35156 56 16.76 34087 -34.42
1037 35191 51 15.86 34122 -34.53
1038 35227 56 16.76 34157 -34.21
1039 35261 51 15.86 34192 -34.53
1040 35300 56 16.76 34230 -33.56
1041 35333 51 15.86 34262 -33.56
1042 35368 56 16.76 34296 -33.56
1043 35404 49 15.48 34331 -34.53
1044 35439 51 15.86 34366 -34.53
1045 35474 49 15.48 34401 -34.53
1046 35509 56 16.76 34436 -33.56
1047 35545 49 15.48 34470 -34.53
1048 35580 51 15.86 34505 -34.53
1049 35616 49 15.48 34540 -34.53
1050 35651 51 15.86 34575 -34.42
1051 35686 56 16.76 34610 -34.32
1052 35722 51 15.86 34645 -34.53
1053 35757 51 15.86 34679 -34.42
1054 35793 51 15.86 34713 -34.32
1055 35831 49 15.48 34750 -34.53
1056 35862 51 15.86 34782 -34.53
1057 35897 49 15.48 34816 -34.53
1058 35934 51 15.86 34851 -34.53
1059 35969 51 15.86 34885 -34.53
1060 36004 51 15.86 34920 -34.53
1061 36040 51 15.86 34954 -34.53
1062 36074 51 15.86 34988 -34.42
1063 36110 56 16.76 35023 -33.78
1064 36145 51 15.86 35057 -34.53
1065 36181 56 16.76 35092 -34.32
1066 36266 56 16.76 35176 -32.17
1067 36282 51 15.86 35193 -34.42
1068 36300 56 16.76 35209 -34.42
1069 36322 56 16.76 35231 -34.53
1070 36361 51 15.86 35269 -34.21
1071 36442 49 15.48 35350 -33.56
1072 36458 56 16.76 35366 -34.21
1073 36476 51 15.86 35382 -34.53
1074 36499 51 15.86 35405 -34.53
1075 36535 56 16.76 35440 -34.32
1076 36570 49 15.48 35475 -34.53
1077 36605 56 16.76 35509 -34.32
1078 36641 51 15.86 35544 -34.42
1079 36677 56 16.76 35579 -34.21
1080 36711 49 15.48 35613 -34.53
1081 36747 51 15.86 35648 -34.53
1082 36782 51 15.86 35682 -34.53
1083 36818 56 16.76 35717 -34.53
1084 36853 51 15.86 35752 -34.53
1085 36892 51 15.86 35790 -34.53
1086 36923 51 15.86 35822 -34.32
1087 36959 54 16.41 35856 -34.53
1088 36994 51 15.86 35890 -34.53
1089 37030 51 15.86 35925 -34.42
1090 37066 56 16.76 35959 -33.56
1091 37100 51 15.86 35993 -34.42
1092 37136 51 15.86 36028 -34.53
1093 37171 51 15.86 36062 -34.53
1094 37207 51 15.86 36097 -34.53
1095 37242 51 15.86 36131 -34.53
1096 37279 51 15.86 36166 -34.42
1097 37312 51 15.86 36200 -34.53
1098 37348 49 15.48 36235 -34.53
1099 37383 51 15.86 36269 -34.53
1100 37422 51 15.86 36307 -34.53
1101 37454 49 15.48 36339 -34.53
1102 37490 56 16.76 36374 -33.56
1103 37524 49 15.48 36408 -34.53
1104 37560 51 15.86 36443 -34.42
1105 37596 51 15.86 36478 -33.56
1106 37631 51 15.86 36512 -34.32
1107 37667 51 15.86 36547 -34.21
1108 37703 51 15.86 36582 -34.42
1109 37737 51 15.86 36616 -34.53
1110 37772 49 15.48 36650 -34.53
1111 37808 56 16.76 36685 -34.42
1112 37843 51 15.86 36719 -34.53
1113 37879 51 15.86 36754 -34.42
1114 37914 49 15.48 36789 -34.53
1115 37951 56 16.76 36826 -34.21
1116 37984 51 15.86 36858 -34.53
1117 38019 49 15.48 36892 -34.53
1118 38055 54 16.41 36927 -34.21
1119 38091 51 15.86 36961 -34.53
1120 38127 56 16.76 36996 -33.56
1121 38161 51 15.86 37030 -34.42
1122 38196 56 16.76 37064 -34.53
1123 38232 49 15.48 37098 -34.53
1124 38267 51 15.86 37133 -34.53
1125 38352 49 15.48 37217 -34.21
1126 38368 49 15.48 37233 -34.53
1127 38386 51 15.86 37249 -34.53
1128 38409 51 15.86 37272 -34.53
1129 38444 49 15.48 37307 -34.53
1130 38479 49 15.48 37341 -34.53
1131 38518 51 15.86 37379 -34.53
1132 38550 56 16.76 37411 -34.53
1133 38586 56 16.76 37446 -34.53
1134 38669 56 16.76 37529 -31.95
1135 38687 51 15.86 37546 -34.42
1136 38704 51 15.86 37562 -34.53
1137 38727 51 15.86 37585 -34.53
1138 38762 51 15.86 37620 -34.53
1139 38797 51 15.86 37655 -34.53
1140 38833 51 15.86 37690 -34.53
1141 38869 56 16.76 37724 -33.56
1142 38904 49 15.48 37758 -34.53
1143 38940 56 16.76 37793 -34.32
1144 38974 56 16.76 37827 -33.56
1145 39010 51 15.86 37862 -34.32
1146 39048 56 16.76 37900 -34.32
1147 39081 49 15.48 37932 -34.53
1148 39116 56 16.76 37966 -34.32
1149 39152 49 15.48 38000 -34.53
1150 39186 51 15.86 38035 -34.53
1151 39222 51 15.86 38070 -34.53
1152 39257 56 16.76 38104 -34.42
1153 39293 56 16.76 38138 -34.32
1154 39329 51 15.86 38173 -34.32
1155 39364 51 15.86 38208 -34.42
1156 39399 56 16.76 38242 -33.56
1157 39434 51 15.86 38276 -34.42
1158 39469 56 16.76 38310 -33.56
1159 39505 51 15.86 38345 -34.53
1160 39541 51 15.86 38380 -34.53
1161 39579 49 15.48 38417 -34.53
1162 39611 56 16.76 38449 -33.56
1163 39646 56 16.76 38483 -33.56
1164 39682 51 15.86 38518 -34.42
1165 39717 51 15.86 38553 -34.53
1166 39753 56 16.76 38588 -33.56
1167 39787 56 16.76 38622 -33.56
1168 39823 51 15.86 38656 -34.42
1169 39858 49 15.48 38691 -34.53
1170 39894 56 16.76 38726 -34.42
1171 39930 51 15.86 38762 -34.53
1172 39966 51 15.86 38796 -34.53
1173 40000 51 15.86 38830 -34.42
1174 40035 51 15.86 38864 -34.53
1175 40070 51 15.86 38899 -34.42
1176 40109 51 15.86 38937 -34.53
1177 40141 49 15.48 38969 -34.53
1178 40177 51 15.86 39004 -34.53
1179 40211 56 16.76 39039 -34.53
1180 40247 56 16.76 39074 -33.56
1181 40283 56 16.76 39109 -33.56
1182 40318 51 15.86 39144 -34.21
1183 40354 56 16.76 39178 -34.32
1184 40438 49 15.48 39261 -34.21
1185 40454 56 16.76 39277 -34.53
1186 40471 56 16.76 39293 -34.53
1187 40495 51 15.86 39316 -34.53
1188 40530 48 15.29 39350 -34.53
1189 40566 56 16.76 39385 -34.53
1190 40601 51 15.86 39419 -34.53
1191 40639 56 16.76 39457 -33.56
1192 40672 51 15.86 39489 -34.42
1193 40707 51 15.86 39524 -34.53
1194 40743 56 16.76 39559 -34.21
1195 40778 51 15.86 39593 -34.53
1196 40814 51 15.86 39628 -34.53
1197 40897 49 15.48 39712 -34.32
1198 40915 51 15.86 39728 -34.53
1199 40932 56 16.76 39744 -34.42
1200 40955 51 15.86 39766 -34.53
1201 40990 51 15.86 39801 -34.53
1202 41025 51 15.86 39836 -34.53
1203 41061 51 15.86 39871 -34.53
1204 41097 56 16.76 39906 -33.56
1205 41132 51 15.86 39940 -33.56
1206 41170 49 15.48 39978 -34.53
1207 41203 56 16.76 40009 -34.32
1208 41237 54 16.41 40044 -34.42
1209 41273 51 15.86 40079 -34.42
1210 41309 51 15.86 40113 -34.42
1211 41344 56 16.76 40147 -33.56
1212 41380 56 16.76 40182 -33.56
1213 41415 51 15.86 40216 -33.56
1214 41450 56 16.76 40251 -33.56
1215 41485 51 15.86 40285 -33.56
1216 41521 51 15.86 40320 -33.56
1217 41557 51 15.86 40355 -33.56
1218 41592 51 15.86 40389 -33.56
1219 41627 56 16.76 40423 -33.56
1220 41662 51 15.86 40458 -34.42
1221 41701 56 16.76 40496 -34.32
1222 41733 49 15.48 40527 -34.53
1223 41768 51 15.86 40561 -34.53
1224 41804 51 15.86 40596 -34.53
1225 41840 51 15.86 40631 -34.53
1226 41874 51 15.86 40665 -34.53
1227 41909 56 16.76 40699 -34.21
1228 41945 51 15.86 40733 -34.53
1229 41980 51 15.86 40768 -34.53
1230 42016 56 16.76 40803 -33.56
1231 42052 51 15.86 40837 -33.56
1232 42086 51 15.86 40872 -34.32
1233 42122 51 15.86 40906 -34.53
1234 42157 51 15.86 40940 -34.53
1235 42193 56 16.76 40975 -34.53
1236 42231 51 15.86 41012 -34.21
1237 42263 56 16.76 41044 -34.32
1238 42298 51 15.86 41078 -34.53
1239 42334 51 15.86 41113 -34.53
1240 42369 49 15.48 41147 -34.53
1241 42404 51 15.86 41182 -34.53
1242 42440 49 15.48 41217 -34.53
1243 42524 49 15.48 41300 -34.53
1244 42540 49 15.48 41316 -34.53
1245 42557 51 15.86 41332 -34.53
1246 42581 54 16.41 41355 -34.53
1247 42617 56 16.76 41389 -34.32
1248 42653 51 15.86 41424 -34.42
1249 42687 54 16.41 41458 -34.53
1250 42722 49 15.48 41492 -34.53
1251 42761 56 16.76 41530 -34.53
1252 42793 51 15.86 41562 -34.42
1253 42829 51 15.86 41597 -34.53
1254 42865 51 15.86 41631 -34.53
1255 42899 56 16.76 41666 -33.56
1256 42935 51 15.86 41700 -33.56
1257 42970 51 15.86 41734 -34.42
1258 43006 51 15.86 41769 -34.53
1259 43041 54 16.41 41803 -34.53
1260 43126 51 15.86 41887 -33.56
1261 43143 51 15.86 41903 -34.42
1262 43159 56 16.76 41919 -34.53
1263 43183 51 15.86 41941 -34.53
1264 43218 49 15.48 41975 -34.53
1265 43254 51 15.86 42010 -34.42
1266 43292 51 15.86 42048 -34.53
1267 43323 51 15.86 42079 -34.53
1268 43359 51 15.86 42114 -34.53
1269 43395 56 16.76 42148 -34.32
1270 43430 49 15.48 42182 -34.53
1271 43465 51 15.86 42217 -34.53
1272 43500 51 15.86 42252 -34.53
1273 43536 56 16.76 42287 -33.56
1274 43571 56 16.76 42321 -33.56
1275 43607 56 16.76 42356 -33.56
1276 43643 51 15.86 42391 -33.56
1277 43678 56 16.76 42425 -33.56
1278 43712 56 16.76 42460 -33.56
1279 43748 51 15.86 42494 -34.42
1280 43784 51 15.86 42529 -34.53
1281 43822 51 15.86 42566 -34.53
1282 43855 54 16.41 42598 -34.32
1283 43890 51 15.86 42632 -34.53
1284 43925 56 16.76 42667 -33.56
1285 43960 51 15.86 42701 -33.56
1286 43996 56 16.76 42736 -33.56
1287 44032 56 16.76 42771 -33.56
1288 44067 51 15.86 42805 -33.56
1289 44102 51 15.86 42839 -34.32
1290 44137 51 15.86 42874 -34.42
1291 44172 56 16.76 42909 -34.42
1292 44209 51 15.86 42945 -34.42
1293 44243 51 15.86 42979 -34.53
1294 44279 51 15.86 43014 -34.53
1295 44314 51 15.86 43049 -34.53
1296 44352 56 16.76 43087 -33.56
1297 44384 51 15.86 43119 -34.53
1298 44420 51 15.86 43153 -34.53
1299 44455 49 15.48 43188 -34.53
1300 44491 51 15.86 43223 -34.32
1301 44527 51 15.86 43258 -34.53
1302 44611 51 15.86 43341 -33.56
1303 44627 49 15.48 43357 -34.53
1304 44643 49 15.48 43373 -34.53
1305 44668 56 16.76 43396 -34.53
1306 44703 49 15.48 43430 -34.53
1307 44739 51 15.86 43465 -34.53
1308 44773 51 15.86 43500 -34.53
1309 44809 56 16.76 43535 -34.32
1310 44844 51 15.86 43569 -34.53
1311 44883 56 16.76 43607 -33.56
1312 44916 51 15.86 43639 -34.42
1313 44950 51 15.86 43673 -34.42
1314 44986 51 15.86 43707 -34.53
1315 45021 51 15.86 43742 -34.42
1316 45057 49 15.48 43777 -34.53
1317 45093 56 16.76 43812 -34.32
1318 45128 51 15.86 43846 -34.53
1319 45162 54 16.41 43881 -34.42
1320 45198 56 16.76 43915 -34.21
1321 45233 51 15.86 43949 -34.53
1322 45269 56 16.76 43983 -34.42
1323 45353 56 16.76 44067 -31.95
1324 45370 49 15.48 44083 -34.53
1325 45387 56 16.76 44099 -34.53
1326 45413 51 15.86 44124 -34.53
1327 45446 56 16.76 44156 -33.56
1328 45481 56 16.76 44190 -33.56
1329 45516 51 15.86 44225 -34.53
1330 45552 56 16.76 44260 -33.56
1331 45586 49 15.48 44294 -34.53
1332 45622 51 15.86 44329 -34.53
1333 45657 56 16.76 44364 -34.21
1334 45693 49 15.48 44399 -34.53
1335 45729 56 16.76 44434 -34.32
1336 45764 49 15.48 44468 -34.53
1337 45799 51 15.86 44503 -34.53
1338 45835 51 15.86 44537 -34.53
1339 45870 49 15.48 44571 -34.53
1340 45905 51 15.86 44606 -34.42
1341 45944 49 15.48 44644 -34.53
1342 45975 56 16.76 44676 -34.53
1343 46011 56 16.76 44711 -33.56
1344 46047 51 15.86 44745 -33.56
1345 46082 56 16.76 44779 -33.56
1346 46118 51 15.86 44813 -34.32
1347 46153 56 16.76 44847 -34.42
1348 46187 49 15.48 44882 -34.53
1349 46223 56 16.76 44917 -34.32
1350 46259 51 15.86 44952 -34.53
1351 46295 56 16.76 44988 -33.56
1352 46330 56 16.76 45022 -33.56
1353 46365 56 16.76 45057 -31.95
1354 46400 54 16.41 45091 -33.56
1355 46436 51 15.86 45126 -33.56
1356 46474 56 16.76 45163 -33.56
1357 46506 51 15.86 45195 -33.56
1358 46542 51 15.86 45230 -34.42
1359 46577 56 16.76 45264 -34.42
1360 46612 56 16.76 45298 -34.21
1361 46696 54 16.41 45381 -33.56
1362 46713 56 16.76 45397 -34.42
1363 46729 56 16.76 45414 -34.53
1364 46754 51 15.86 45437 -34.53
1365 46790 56 16.76 45472 -33.56
1366 46824 54 16.41 45506 -33.56
1367 46859 49 15.48 45541 -34.42
1368 46895 51 15.86 45576 -34.53
1369 46931 51 15.86 45611 -34.53
1370 46966 56 16.76 45645 -34.42
1371 47004 56 16.76 45683 -33.56
1372 47037 49 15.48 45716 -34.53
1373 47072 56 16.76 45750 -34.42
1374 47107 51 15.86 45784 -34.53
1375 47143 51 15.86 45819 -34.53
1376 47179 56 16.76 45853 -33.56
1377 47214 51 15.86 45887 -34.32
1378 47248 49 15.48 45921 -34.53
1379 47284 49 15.48 45956 -34.53
1380 47320 56 16.76 45991 -33.56
1381 47355 56 16.76 46025 -33.56
1382 47391 51 15.86 46060 -34.42
1383 47425 51 15.86 46094 -34.42
1384 47461 54 16.41 46129 -33.99
1385 47496 51 15.86 46163 -34.32
1386 47580 51 15.86 46246 -31.95
1387 47602 56 16.76 46266 -33.56
1388 47619 51 15.86 46282 -34.32
1389 47637 51 15.86 46300 -34.53
1390 47673 51 15.86 46335 -34.32
1391 47708 56 16.76 46369 -34.32
1392 47744 49 15.48 46403 -34.53
1393 47780 56 16.76 46438 -34.42
1394 47815 51 15.86 46473 -34.53
1395 47849 51 15.86 46507 -34.53
1396 47885 51 15.86 46542 -34.53
1397 47921 51 15.86 46577 -34.53
1398 47957 51 15.86 46612 -34.53
1399 47992 56 16.76 46646 -34.53
1400 48027 51 15.86 46680 -34.42
1401 48062 51 15.86 46715 -34.53
1402 48100 49 15.48 46753 -34.53
1403 48133 51 15.86 46785 -34.42
1404 48168 49 15.48 46819 -34.53
1405 48204 51 15.86 46854 -34.53
1406 48240 56 16.76 46889 -34.53
1407 48274 54 16.41 46923 -34.21
1408 48310 51 15.86 46957 -34.53
1409 48345 56 16.76 46991 -34.21
1410 48381 56 16.76 47026 -33.56
1411 48416 51 15.86 47061 -33.56
1412 48451 56 16.76 47095 -34.21
1413 48486 56 16.76 47130 -34.42
1414 48522 51 15.86 47164 -34.42
1415 48557 54 16.41 47198 -34.53
1416 48593 51 15.86 47232 -34.53
1417 48631 51 15.86 47270 -34.32
1418 48663 56 16.76 47301 -34.42
1419 48698 51 15.86 47335 -34.42
1420 48782 56 16.76 47418 -31.95
1421 48799 51 15.86 47434 -33.56
1422 48816 51 15.86 47450 -34.53
1423 48840 56 16.76 47473 -34.21
1424 48875 56 16.76 47508 -33.56
1425 48910 56 16.76 47542 -33.56
1426 48946 56 16.76 47577 -33.56
1427 48981 49 15.48 47611 -34.53
1428 49017 51 15.86 47646 -34.53
1429 49053 51 15.86 47680 -34.53
1430 49087 51 15.86 47714 -34.53
1431 49123 49 15.48 47749 -34.53
1432 49161 51 15.86 47787 -34.53
1433 49194 51 15.86 47819 -34.53
1434 49229 54 16.41 47853 -34.42
1435 49265 56 16.76 47888 -33.56
1436 49300 51 15.86 47922 -34.21
1437 49335 56 16.76 47956 -33.56
1438 49371 51 15.86 47990 -33.56
1439 49406 51 15.86 48024 -33.56
1440 49441 51 15.86 48058 -34.53
1441 49477 56 16.76 48093 -34.21
1442 49511 51 15.86 48127 -34.53
1443 49547 51 15.86 48162 -34.53
1444 49583 56 16.76 48197 -34.32
1445 49618 49 15.48 48231 -34.53
1446 49654 56 16.76 48266 -33.56
1447 49693 51 15.86 48304 -33.56
1448 49724 51 15.86 48335 -33.56
1449 49808 54 16.41 48418 -31.95
1450 49825 51 15.86 48434 -33.56
1451 49842 51 15.86 48450 -34.42
1452 49866 49 15.48 48473 -34.53
1453 49900 56 16.76 48507 -34.32
1454 49936 51 15.86 48542 -34.42
1455 49972 56 16.76 48577 -34.32
1456 50007 51 15.86 48611 -34.53
1457 50043 49 15.48 48646 -34.53
1458 50078 51 15.86 48680 -34.42
1459 50113 51 15.86 48715 -34.42
1460 50148 51 15.86 48749 -34.53
1461 50184 51 15.86 48784 -34.53
1462 50222 49 15.48 48821 -34.53
1463 50254 56 16.76 48853 -34.53
1464 50291 56 16.76 48888 -33.56
1465 50325 51 15.86 48923 -34.53
1466 50361 54 16.41 48958 -34.21
1467 50396 51 15.86 48992 -34.53
1468 50432 56 16.76 49027 -34.32
1469 50468 51 15.86 49062 -34.42
1470 50502 49 15.48 49096 -34.53
1471 50537 51 15.86 49131 -34.53
1472 50573 51 15.86 49165 -34.53
1473 50608 56 16.76 49199 -34.53
1474 50644 51 15.86 49234 -34.53
1475 50679 56 16.76 49268 -34.32
1476 50715 56 16.76 49303 -33.56
1477 50752 56 16.76 49340 -33.56
1478 50784 56 16.76 49372 -33.56
1479 50869 56 16.76 49455 -31.95
1480 50886 51 15.86 49471 -33.56
1481 50902 49 15.48 49487 -34.53
1482 50927 54 16.41 49510 -34.42
1483 50961 51 15.86 49545 -34.53
1484 50997 56 16.76 49580 -34.21
1485 51032 51 15.86 49615 -34.42
1486 51068 56 16.76 49649 -33.56
1487 51103 51 15.86 49683 -34.42
1488 51139 51 15.86 49718 -34.42
1489 51173 49 15.48 49752 -34.53
1490 51209 49 15.48 49787 -34.53
1491 51244 54 16.41 49822 -34.53
1492 51283 51 15.86 49860 -34.42
1493 51316 56 16.76 49892 -34.21
1494 51350 51 15.86 49926 -34.53
1495 51386 51 15.86 49961 -34.53
1496 51421 56 16.76 49995 -34.32
1497 51456 51 15.86 50029 -34.53
1498 51492 51 15.86 50064 -34.53
1499 51528 56 16.76 50099 -33.56
1500 51563 56 16.76 50134 -33.56
1501 51598 49 15.48 50168 -34.53
1502 51633 49 15.48 50203 -34.53
1503 51669 56 16.76 50238 -34.21
1504 51705 56 16.76 50273 -33.56
1505 51740 51 15.86 50307 -34.53
1506 51775 51 15.86 50341 -34.53
1507 51813 51 15.86 50379 -34.42
1508 51846 51 15.86 50411 -34.42
1509 51881 54 16.41 50445 -34.32
1510 51917 56 16.76 50479 -33.56
1511 51952 51 15.86 50514 -34.42
1512 52037 54 16.41 50597 -31.95
1513 52053 51 15.86 50613 -33.56
1514 52069 51 15.86 50629 -34.53
1515 52093 51 15.86 50652 -34.53
1516 52129 56 16.76 50687 -33.56
1517 52165 49 15.48 50722 -34.53
1518 52199 51 15.86 50756 -34.53
1519 52235 51 15.86 50791 -34.53
1520 52270 56 16.76 50825 -34.32
1521 52306 49 15.48 50860 -34.53
1522 52345 56 16.76 50898 -34.32
1523 52377 56 16.76 50929 -34.32
1524 52411 51 15.86 50963 -34.53
1525 52447 51 15.86 50998 -34.42
1526 52483 51 15.86 51033 -34.53
1527 52518 51 15.86 51067 -34.32
1528 52553 56 16.76 51101 -34.32
1529 52588 54 16.41 51135 -34.32
1530 52623 51 15.86 51169 -34.53
1531 52659 56 16.76 51203 -34.42
1532 52695 56 16.76 51238 -33.56
1533 52730 56 16.76 51272 -33.56
1534 52766 56 16.76 51307 -32.17
1535 52800 51 15.86 51341 -33.56
1536 52835 51 15.86 51376 -34.53
1537 52874 49 15.48 51414 -34.53
1538 52955 49 15.48 51494 -33.56
1539 52971 56 16.76 51510 -34.21
1540 52989 51 15.86 51527 -34.53
1541 53012 56 16.76 51550 -34.42
1542 53048 56 16.76 51584 -34.42
1543 53083 49 15.48 51618 -34.53
1544 53119 51 15.86 51653 -34.42
1545 53154 56 16.76 51687 -34.53
1546 53190 51 15.86 51722 -34.21
1547 53224 51 15.86 51757 -34.53
1548 53260 49 15.48 51791 -34.53
1549 53295 56 16.76 51826 -34.21
1550 53331 56 16.76 51860 -33.56
1551 53366 56 16.76 51894 -31.95
1552 53405 56 16.76 51932 -31.95
1553 53437 51 15.86 51964 -33.56
1554 53472 56 16.76 51998 -31.95
1555 53508 51 15.86 52033 -33.56
1556 53543 56 16.76 52067 -33.56
1557 53579 54 16.41 52101 -34.21
1558 53614 51 15.86 52135 -34.53
1559 53649 51 15.86 52171 -34.42
1560 53685 54 16.41 52205 -33.56
1561 53720 51 15.86 52239 -34.32
1562 53755 51 15.86 52273 -34.53
1563 53791 56 16.76 52308 -34.42
1564 53827 56 16.76 52343 -33.56
1565 53861 49 15.48 52377 -34.53
1566 53897 56 16.76 52412 -34.42
1567 53935 51 15.86 52449 -34.53
1568 53968 51 15.86 52482 -34.32
1569 54003 51 15.86 52516 -34.53
1570 54038 56 16.76 52551 -33.56
1571 54073 56 16.76 52585 -33.56
1572 54109 51 15.86 52619 -33.56
1573 54144 56 16.76 52653 -33.56
1574 54179 51 15.86 52687 -34.53
1575 54263 51 15.86 52770 -33.24
1576 54280 54 16.41 52786 -34.21
1577 54298 49 15.48 52802 -34.53
1578 54321 49 15.48 52825 -34.53
1579 54356 49 15.48 52860 -34.53
1580 54392 51 15.86 52895 -34.53
1581 54427 56 16.76 52930 -34.53
1582 54465 51 15.86 52968 -34.53
1583 54498 56 16.76 53000 -33.56
1584 54533 54 16.41 53034 -33.56
1585 54569 51 15.86 53069 -33.56
1586 54604 56 16.76 53103 -33.56
1587 54639 56 16.76 53137 -33.56
1588 54674 56 16.76 53172 -33.56
1589 54709 49 15.48 53206 -34.53
1590 54745 49 15.48 53241 -34.53
1591 54781 56 16.76 53276 -34.42
1592 54816 51 15.86 53310 -34.53
1593 54852 51 15.86 53345 -34.53
1594 54886 49 15.48 53380 -34.53
1595 54922 51 15.86 53414 -34.53
1596 54958 56 16.76 53449 -33.56
1597 55044 56 16.76 53534 -31.95
1598 55061 51 15.86 53550 -33.56
1599 55078 51 15.86 53566 -34.53
1600 55099 49 15.48 53586 -34.53
1601 55135 54 16.41 53621 -34.53
1602 55170 56 16.76 53655 -34.42
1603 55206 56 16.76 53689 -34.32
1604 55241 56 16.76 53724 -33.56
1605 55276 51 15.86 53758 -33.78
1606 55311 51 15.86 53793 -34.42
1607 55346 51 15.86 53827 -34.53
1608 55382 56 16.76 53862 -34.42
1609 55417 56 16.76 53897 -33.56
1610 55453 56 16.76 53932 -33.56
1611 55488 56 16.76 53967 -33.56
1612 55526 49 15.48 54004 -34.42
1613 55559 49 15.48 54036 -34.53
1614 55595 54 16.41 54070 -34.32
1615 55630 56 16.76 54104 -34.21
1616 55665 56 16.76 54138 -33.56
1617 55700 56 16.76 54173 -33.56
1618 55736 56 16.76 54208 -33.56
1619 55771 56 16.76 54242 -31.95
1620 55807 51 15.86 54276 -33.56
1621 55842 51 15.86 54311 -34.53
1622 55878 51 15.86 54346 -34.53
1623 55912 51 15.86 54380 -34.32
1624 55948 56 16.76 54415 -34.32
1625 55984 56 16.76 54449 -34.21
1626 56019 49 15.48 54483 -34.53
1627 56058 51 15.86 54521 -34.53
1628 56090 51 15.86 54553 -34.53
1629 56125 51 15.86 54588 -34.42
1630 56160 56 16.76 54622 -33.56
1631 56196 56 16.76 54657 -33.56
1632 56231 49 15.48 54692 -34.42
1633 56266 49 15.48 54726 -34.53
1634 56303 51 15.86 54761 -34.42
1635 56337 51 15.86 54795 -34.53
1636 56372 49 15.48 54830 -34.53
1637 56408 49 15.48 54865 -34.53
1638 56492 51 15.86 54948 -33.56
1639 56509 51 15.86 54964 -34.32
1640 56526 56 16.76 54980 -34.53
1641 56549 56 16.76 55003 -34.42
1642 56585 51 15.86 55037 -34.32
1643 56623 51 15.86 55075 -34.53
1644 56656 56 16.76 55107 -34.53
1645 56691 56 16.76 55142 -33.56
1646 56726 56 16.76 55176 -33.56
1647 56761 56 16.76 55210 -33.56
1648 56797 56 16.76 55244 -33.56
1649 56832 51 15.86 55278 -34.32
1650 56867 51 15.86 55313 -34.53
1651 56903 51 15.86 55348 -34.53
1652 56938 51 15.86 55383 -34.42
1653 56974 51 15.86 55418 -34.42
1654 57009 56 16.76 55452 -34.32
1655 57045 56 16.76 55487 -33.56
1656 57080 49 15.48 55521 -34.53
1657 57164 51 15.86 55605 -33.56
1658 57184 56 16.76 55624 -33.56
1659 57202 56 16.76 55640 -34.42
1660 57221 49 15.48 55659 -34.53
1661 57257 56 16.76 55694 -34.42
1662 57292 51 15.86 55728 -34.53
1663 57328 56 16.76 55763 -33.56
1664 57362 56 16.76 55797 -33.56
1665 57397 54 16.41 55831 -33.56
1666 57433 54 16.41 55865 -33.56
1667 57469 49 15.48 55900 -34.42
1668 57504 56 16.76 55935 -34.21
1669 57539 51 15.86 55969 -34.53
1670 57574 49 15.48 56004 -34.53
1671 57609 51 15.86 56038 -34.53
1672 57645 49 15.48 56073 -34.53
1673 57683 56 16.76 56111 -34.42
1674 57717 56 16.76 56143 -33.56
1675 57751 51 15.86 56177 -34.53
1676 57787 56 16.76 56212 -34.21
1677 57822 51 15.86 56246 -34.53
1678 57858 56 16.76 56280 -34.21
1679 57893 54 16.41 56314 -34.32
1680 57928 49 15.48 56348 -34.53
1681 57963 56 16.76 56383 -33.56
1682 57999 54 16.41 56417 -33.56
1683 58034 49 15.48 56452 -34.53
1684 58070 49 15.48 56487 -34.53
1685 58105 56 16.76 56521 -34.21
1686 58141 51 15.86 56555 -34.53
1687 58175 56 16.76 56590 -33.78
1688 58214 49 15.48 56628 -34.53
1689 58247 51 15.86 56660 -34.42
1690 58282 49 15.48 56694 -34.53
1691 58318 54 16.41 56729 -34.21
1692 58353 51 15.86 56763 -34.53
1693 58387 56 16.76 56798 -34.53
1694 58424 56 16.76 56834 -34.21
1695 58459 51 15.86 56868 -34.53
1696 58495 56 16.76 56902 -33.78
1697 58530 56 16.76 56936 -33.56
1698 58565 51 15.86 56970 -34.42
1699 58600 56 16.76 57005 -33.56
1700 58635 51 15.86 57039 -34.42
1701 58719 51 15.86 57122 -33.56
1702 58737 56 16.76 57138 -34.21
1703 58757 56 16.76 57158 -34.32
1704 58778 56 16.76 57178 -34.42
1705 58812 51 15.86 57212 -34.53
1706 58848 51 15.86 57247 -34.32
1707 58883 54 16.41 57281 -34.32
1708 58918 51 15.86 57315 -34.53
1709 58954 51 15.86 57350 -34.42
1710 58990 56 16.76 57385 -33.56
1711 59024 51 15.86 57419 -34.32
1712 59059 51 15.86 57454 -34.53
1713 59095 56 16.76 57489 -34.32
1714 59130 51 15.86 57523 -34.53
1715 59166 51 15.86 57558 -34.53
1716 59250 51 15.86 57642 -33.56
1717 59267 51 15.86 57658 -34.53
1718 59286 56 16.76 57677 -34.53
1719 59307 51 15.86 57696 -34.53
1720 59342 51 15.86 57731 -34.42
1721 59378 56 16.76 57766 -34.53
1722 59413 56 16.76 57801 -34.32
1723 59449 56 16.76 57836 -34.32
1724 59484 56 16.76 57870 -33.56
1725 59519 56 16.76 57904 -34.21
1726 59555 49 15.48 57938 -34.53
1727 59590 51 15.86 57973 -34.53
1728 59625 51 15.86 58007 -34.53
1729 59661 51 15.86 58043 -34.53
1730 59697 49 15.48 58078 -34.53
1731 59731 49 15.48 58112 -34.53
1732 59767 51 15.86 58147 -34.53
1733 59806 51 15.86 58185 -34.32
1734 59838 51 15.86 58217 -34.53
1735 59873 49 15.48 58252 -34.53
1736 59909 56 16.76 58287 -33.78
1737 59944 56 16.76 58321 -33.56
1738 59979 51 15.86 58355 -34.42
1739 60016 56 16.76 58390 -31.95
1740 60050 49 15.48 58424 -34.32
1741 60085 51 15.86 58458 -34.42
1742 60121 51 15.86 58493 -34.42
1743 60156 49 15.48 58527 -34.53
1744 60192 56 16.76 58562 -34.32
1745 60227 51 15.86 58597 -34.53
1746 60262 56 16.76 58631 -33.56
1747 60297 51 15.86 58665 -33.56
1748 60336 51 15.86 58703 -34.42
1749 60368 49 15.48 58735 -34.53
1750 60404 49 15.48 58770 -34.53
1751 60439 56 16.76 58805 -33.56
1752 60474 56 16.76 58839 -33.56
1753 60510 51 15.86 58874 -33.56
1754 60545 54 16.41 58909 -34.32
1755 60580 51 15.86 58943 -34.53
1756 60616 51 15.86 58978 -34.42
1757 60651 56 16.76 59012 -33.56
1758 60686 51 15.86 59047 -34.42
1759 60722 56 16.76 59081 -34.32
1760 60757 51 15.86 59116 -34.53
1761 60793 51 15.86 59151 -34.53
1762 60828 56 16.76 59186 -33.56
1763 60867 49 15.48 59223 -34.53
1764 60947 56 16.76 59304 -33.56
1765 60965 51 15.86 59321 -34.53
1766 60982 48 15.29 59337 -34.53
1767 61005 54 16.41 59360 -34.53
1768 61041 56 16.76 59394 -34.32
1769 61075 56 16.76 59428 -34.21
1770 61111 56 16.76 59463 -33.56
1771 61146 54 16.41 59497 -34.42
1772 61182 56 16.76 59532 -33.56
1773 61217 56 16.76 59566 -31.95
1774 61253 51 15.86 59601 -33.56
1775 61337 49 15.48 59684 -33.56
1776 61353 49 15.48 59700 -34.53
1777 61370 56 16.76 59716 -34.53
1778 61397 51 15.86 59743 -34.53
1779 61429 51 15.86 59774 -34.53
1780 61465 51 15.86 59809 -34.53
1781 61499 56 16.76 59844 -33.56
1782 61535 51 15.86 59878 -34.32
1783 61570 56 16.76 59912 -34.42
1784 61605 51 15.86 59947 -34.53
1785 61641 56 16.76 59982 -33.56
1786 61676 56 16.76 60017 -33.56
1787 61712 56 16.76 60051 -33.56
1788 61747 56 16.76 60085 -33.56
1789 61782 51 15.86 60120 -33.56
1790 61818 49 15.48 60155 -34.53
1791 61854 51 15.86 60190 -34.42
1792 61888 49 15.48 60224 -34.53
1793 61927 51 15.86 60262 -34.53
1794 61959 51 15.86 60294 -34.53
1795 61995 51 15.86 60329 -34.53
1796 62030 54 16.41 60364 -34.32
1797 62066 51 15.86 60399 -34.53
1798 62100 54 16.41 60433 -34.32
1799 62136 56 16.76 60468 -33.56
1800 62171 49 15.48 60502 -34.53
1801 62207 49 15.48 60537 -34.53
1802 62243 51 15.86 60572 -34.42
1803 62278 51 15.86 60607 -34.42
1804 62313 51 15.86 60641 -34.53
1805 62348 56 16.76 60675 -34.21
1806 62384 51 15.86 60710 -34.53
1807 62420 56 16.76 60745 -34.32
1808 62458 56 16.76 60782 -34.32
1809 62490 56 16.76 60814 -33.56
1810 62525 56 16.76 60849 -33.56
1811 62560 56 16.76 60883 -33.56
1812 62596 56 16.76 60918 -33.56
1813 62631 51 15.86 60952 -34.32
1814 62667 56 16.76 60987 -33.56
1815 62703 56 16.76 61022 -33.56
1816 62737 51 15.86 61056 -33.56
1817 62773 56 16.76 61090 -33.56
1818 62808 56 16.76 61125 -33.56
1819 62844 49 15.48 61159 -34.42
1820 62879 56 16.76 61193 -34.53
1821 62915 56 16.76 61228 -34.21
1822 62949 56 16.76 61262 -34.42
1823 62988 49 15.48 61300 -34.53
1824 63020 56 16.76 61331 -33.56
1825 63056 56 16.76 61365 -33.56
1826 63092 56 16.76 61400 -33.56
1827 63176 56 16.76 61484 -31.95
1828 63193 51 15.86 61500 -33.56
1829 63209 56 16.76 61516 -33.56
1830 63232 51 15.86 61538 -34.53
1831 63268 56 16.76 61573 -33.56
1832 63304 56 16.76 61608 -31.95
1833 63338 56 16.76 61642 -31.95
1834 63422 51 15.86 61725 -31.95
1835 63439 51 15.86 61741 -33.56
1836 63456 51 15.86 61757 -34.53
1837 63480 56 16.76 61780 -34.32
1838 63518 49 15.48 61817 -34.53
1839 63550 56 16.76 61849 -33.56
1840 63586 56 16.76 61884 -33.56
1841 63621 56 16.76 61918 -31.95
1842 63657 56 16.76 61953 -31.95
1843 63692 56 16.76 61987 -31.95
1844 63727 56 16.76 62021 -31.95
1845 63762 56 16.76 62056 -31.95
1846 63798 56 16.76 62091 -31.95
1847 63833 51 15.86 62125 -33.56
1848 63869 56 16.76 62160 -33.56
1849 63904 56 16.76 62195 -33.56
1850 63940 56 16.76 62230 -33.56
1851 63975 56 16.76 62265 -33.56
1852 64010 56 16.76 62299 -33.56
1853 64048 49 15.48 62337 -34.53
1854 64081 56 16.76 62369 -33.56
1855 64117 56 16.76 62403 -33.56
1856 64153 56 16.76 62438 -33.56
1857 64187 51 15.86 62472 -34.21
1858 64222 56 16.76 62506 -34.42
1859 64258 51 15.86 62541 -34.53
1860 64293 51 15.86 62576 -34.42
1861 64329 49 15.48 62611 -34.53
1862 64363 51 15.86 62645 -34.53
1863 64399 56 16.76 62680 -33.56
1864 64434 56 16.76 62714 -33.56
1865 64470 56 16.76 62749 -33.56
1866 64506 49 15.48 62784 -34.53
1867 64541 51 15.86 62818 -34.32
1868 64580 51 15.86 62856 -34.53
1869 64611 56 16.76 62888 -33.56
1870 64646 51 15.86 62922 -34.32
1871 64682 51 15.86 62957 -34.32
1872 64718 49 15.48 62992 -34.53
1873 64753 56 16.76 63026 -33.56
1874 64788 56 16.76 63060 -33.56
1875 64823 49 15.48 63094 -34.53
1876 64859 51 15.86 63129 -34.42
1877 64894 51 15.86 63164 -34.53
1878 64930 56 16.76 63199 -34.32
1879 64966 51 15.86 63234 -34.42
1880 65000 51 15.86 63268 -34.53
1881 65035 51 15.86 63303 -34.42
1882 65071 56 16.76 63338 -33.56
1883 65110 56 16.76 63376 -33.56
1884 65142 56 16.76 63407 -33.56
1885 65178 56 16.76 63441 -33.56
1886 65212 51 15.86 63475 -34.53
1887 65248 56 16.76 63510 -34.42
1888 65283 56 16.76 63544 -33.56
1889 65319 56 16.76 63579 -33.56
1890 65403 51 15.86 63662 -31.95
1891 65420 56 16.76 63678 -32.17
1892 65437 51 15.86 63694 -33.56
1893 65508 56 16.76 63765 -31.95
1894 65527 56 16.76 63782 -33.56
1895 65544 56 16.76 63798 -34.21
1896 65567 51 15.86 63820 -34.53
1897 65601 49 15.48 63854 -34.53
1898 65636 51 15.86 63889 -34.53
1899 65675 56 16.76 63927 -31.95
1900 65707 56 16.76 63958 -31.95
1901 65743 51 15.86 63992 -33.56
1902 65778 56 16.76 64027 -31.95
1903 65813 54 16.41 64061 -31.95
1904 65848 51 15.86 64096 -33.56
1905 65884 56 16.76 64131 -33.56
1906 65919 49 15.48 64166 -34.32
1907 65955 56 16.76 64201 -33.56
1908 65991 56 16.76 64235 -33.56
1909 66025 51 15.86 64270 -33.56
1910 66061 56 16.76 64304 -33.56
1911 66096 51 15.86 64338 -34.32
1912 66132 56 16.76 64373 -33.56
1913 66168 56 16.76 64408 -33.56
1914 66206 54 16.41 64445 -33.56
1915 66238 56 16.76 64477 -33.56
1916 66273 56 16.76 64511 -33.56
1917 66308 51 15.86 64546 -34.53
1918 66344 56 16.76 64581 -34.42
1919 66379 51 15.86 64616 -34.53
1920 66415 56 16.76 64651 -34.21
1921 66450 51 15.86 64686 -33.56
1922 66487 56 16.76 64722 -33.56
1923 66521 51 15.86 64755 -34.53
1924 66556 56 16.76 64790 -33.56
1925 66592 56 16.76 64825 -33.56
1926 66627 56 16.76 64859 -33.56
1927 66662 51 15.86 64894 -34.42
1928 66698 56 16.76 64929 -33.56
1929 66736 56 16.76 64966 -33.56
1930 66768 56 16.76 64997 -33.56
1931 66804 56 16.76 65032 -33.56
1932 66839 56 16.76 65066 -33.56
1933 66874 51 15.86 65101 -33.56
1934 66910 51 15.86 65136 -34.32
1935 66945 51 15.86 65170 -34.53
1936 66981 56 16.76 65205 -34.21
1937 67016 56 16.76 65239 -34.21
1938 67051 56 16.76 65273 -33.56
1939 67087 56 16.76 65308 -33.56
1940 67122 49 15.48 65342 -34.53
1941 67158 51 15.86 65377 -34.53
1942 67193 51 15.86 65411 -33.78
1943 67228 49 15.48 65445 -34.53
1944 67267 51 15.86 65483 -34.53
1945 67299 56 16.76 65515 -33.56
1946 67334 51 15.86 65549 -33.56
1947 67369 49 15.48 65584 -34.53
1948 67405 56 16.76 65619 -33.56
1949 67441 56 16.76 65653 -33.56
1950 67476 56 16.76 65688 -33.56
1951 67511 56 16.76 65722 -33.56
1952 67594 49 15.48 65805 -33.56
1953 67661 56 16.76 65870 -31.95
1954 67677 51 15.86 65886 -34.42
1955 67695 51 15.86 65902 -34.53
1956 67716 49 15.48 65923 -34.53
1957 67751 51 15.86 65958 -34.53
1958 67787 56 16.76 65993 -34.42
1959 67825 51 15.86 66030 -34.53
1960 67857 56 16.76 66062 -34.42
1961 67892 51 15.86 66096 -34.53
1962 67928 56 16.76 66131 -33.56
1963 67964 51 15.86 66166 -33.56
1964 67999 51 15.86 66200 -34.21
1965 68035 49 15.48 66235 -34.53
1966 68069 48 15.29 66269 -34.53
1967 68105 56 16.76 66304 -34.53
1968 68140 56 16.76 66339 -34.53
1969 68175 51 15.86 66373 -34.53
1970 68211 56 16.76 66408 -34.32
1971 68246 56 16.76 66442 -33.56
1972 68281 56 16.76 66476 -33.56
1973 68317 51 15.86 66510 -33.56
1974 68363 51 15.86 66556 -34.32
1975 68388 51 15.86 66580 -34.53
1976 68424 51 15.86 66615 -34.53
1977 68458 51 15.86 66649 -34.53
1978 68493 49 15.48 66683 -34.53
1979 68530 51 15.86 66718 -34.42
1980 68565 54 16.41 66752 -34.32
1981 68601 51 15.86 66787 -34.53
1982 68636 56 16.76 66821 -33.56
1983 68670 51 15.86 66855 -34.53
1984 68706 51 15.86 66890 -34.53
1985 68742 51 15.86 66925 -34.42
1986 68777 56 16.76 66959 -33.56
1987 68812 56 16.76 66993 -33.56
1988 68848 51 15.86 67028 -33.56
1989 68886 56 16.76 67065 -33.56
1990 68918 49 15.48 67097 -34.53
1991 68954 49 15.48 67132 -34.53
1992 68989 56 16.76 67167 -34.32
1993 69024 49 15.48 67201 -34.53
1994 69060 56 16.76 67236 -34.42
1995 69095 56 16.76 67271 -33.56
1996 69130 51 15.86 67305 -34.53
1997 69166 56 16.76 67340 -33.56
1998 69201 56 16.76 67374 -33.56
1999 69237 49 15.48 67409 -34.53
2000 69271 56 16.76 67444 -34.32
2001 69307 54 16.41 67478 -34.53
2002 69342 51 15.86 67513 -34.21
2003 69378 56 16.76 67547 -33.56
2004 69416 51 15.86 67585 -34.21
2005 69449 54 16.41 67617 -34.53
2006 69483 51 15.86 67652 -34.53
2007 69519 49 15.48 67687 -34.53
2008 69554 51 15.86 67722 -34.53
2009 69590 49 15.48 67757 -34.53
2010 69625 49 15.48 67792 -34.53
2011 69709 51 15.86 67875 -33.56
2012 69726 49 15.48 67891 -34.53
2013 69744 56 16.76 67907 -34.53
2014 69767 56 16.76 67930 -34.21
2015 69802 56 16.76 67964 -33.56
2016 69886 49 15.48 68047 -33.56
2017 69903 56 16.76 68063 -33.56
2018 69920 51 15.86 68079 -34.53
2019 69946 51 15.86 68105 -34.53
2020 69979 56 16.76 68137 -33.56
2021 70014 56 16.76 68171 -33.56
2022 70049 51 15.86 68205 -34.42
2023 70085 56 16.76 68240 -34.53
2024 70120 56 16.76 68274 -33.56
2025 70155 56 16.76 68309 -33.56
2026 70191 56 16.76 68343 -33.56
2027 70226 56 16.76 68377 -33.56
2028 70262 56 16.76 68411 -33.56
2029 70297 51 15.86 68445 -34.32
2030 70332 54 16.41 68480 -34.42
2031 70367 51 15.86 68514 -34.53
2032 70403 49 15.48 68549 -34.53
2033 70438 51 15.86 68584 -34.53
2034 70477 56 16.76 68622 -34.32
2035 70510 56 16.76 68654 -33.56
2036 70545 51 15.86 68688 -33.56
2037 70580 49 15.48 68722 -34.53
2038 70616 56 16.76 68757 -34.32
2039 70652 56 16.76 68792 -33.56
2040 70687 51 15.86 68826 -33.56
2041 70721 56 16.76 68860 -33.56
2042 70757 56 16.76 68894 -33.56
2043 70792 56 16.76 68929 -33.56
2044 70828 49 15.48 68963 -34.53
2045 70863 49 15.48 68998 -34.53
2046 70899 51 15.86 69032 -34.53
2047 70933 51 15.86 69067 -34.53
2048 70969 56 16.76 69102 -33.56
2049 71007 56 16.76 69140 -33.56
2050 71040 56 16.76 69171 -33.56
2051 71076 56 16.76 69206 -31.95
2052 71111 56 16.76 69241 -31.95
2053 71145 51 15.86 69275 -33.56
2054 71181 51 15.86 69310 -34.42
2055 71216 56 16.76 69344 -34.32
2056 71252 56 16.76 69379 -33.56
2057 71288 56 16.76 69414 -33.56
2058 71323 56 16.76 69448 -33.56
2059 71358 51 15.86 69482 -34.32
2060 71393 51 15.86 69517 -34.53
2061 71429 56 16.76 69552 -34.32
2062 71464 56 16.76 69586 -33.56
2063 71500 51 15.86 69620 -33.56
2064 71538 51 15.86 69657 -34.42
2065 71570 56 16.76 69689 -34.32
2066 71605 54 16.41 69724 -34.32
2067 71641 51 15.86 69758 -34.53
2068 71677 49 15.48 69793 -34.53
2069 71712 56 16.76 69827 -34.21
2070 71796 56 16.76 69910 -31.95
2071 71813 56 16.76 69926 -33.56
2072 71830 56 16.76 69942 -33.56
2073 71853 51 15.86 69964 -34.53
2074 71889 56 16.76 69999 -34.21
2075 71924 56 16.76 70033 -34.32
2076 71959 56 16.76 70067 -33.56
2077 71995 56 16.76 70102 -32.17
2078 72030 56 16.76 70136 -31.95
2079 72117 56 16.76 70223 -31.95
2080 72135 56 16.76 70239 -31.95
2081 72152 56 16.76 70256 -31.95
2082 72172 54 16.41 70276 -33.56
2083 72208 51 15.86 70311 -34.32
2084 72244 56 16.76 70346 -34.42
2085 72279 56 16.76 70381 -33.56
2086 72314 49 15.48 70415 -34.53
2087 72351 51 15.86 70450 -34.53
2088 72384 51 15.86 70484 -34.42
2089 72420 51 15.86 70519 -34.53
2090 72456 56 16.76 70554 -34.32
2091 72491 56 16.76 70588 -33.56
2092 72526 49 15.48 70622 -34.53
2093 72562 51 15.86 70657 -34.53
2094 72599 51 15.86 70695 -34.32
2095 72633 56 16.76 70728 -34.21
2096 72668 56 16.76 70762 -34.42
2097 72703 51 15.86 70797 -34.53
2098 72739 56 16.76 70832 -34.32
2099 72775 56 16.76 70866 -34.42
2100 72809 56 16.76 70900 -33.56
2101 72845 49 15.48 70935 -34.53
2102 72880 56 16.76 70969 -34.53
2103 72916 56 16.76 71004 -33.56
2104 72951 56 16.76 71038 -33.56
2105 72987 56 16.76 71073 -32.17
2106 73021 56 16.76 71107 -33.56
2107 73057 56 16.76 71141 -33.56
2108 73093 51 15.86 71176 -34.42
2109 73131 51 15.86 71213 -34.42
2110 73163 51 15.86 71245 -34.53
2111 73199 51 15.86 71280 -34.32
2112 73233 49 15.48 71314 -34.53
2113 73269 56 16.76 71349 -34.32
2114 73305 56 16.76 71384 -33.56
2115 73340 56 16.76 71419 -33.56
2116 73376 56 16.76 71454 -33.56
2117 73411 51 15.86 71488 -33.56
2118 73447 56 16.76 71523 -33.56
2119 73482 56 16.76 71557 -33.56
2120 73517 56 16.76 71591 -33.56
2121 73552 51 15.86 71625 -33.56
2122 73588 56 16.76 71660 -33.56
2123 73623 51 15.86 71695 -34.42
2124 73661 56 16.76 71732 -33.56
2125 73694 56 16.76 71764 -33.56
2126 73729 49 15.48 71798 -34.53
2127 73764 56 16.76 71833 -33.56
2128 73800 51 15.86 71868 -34.53
2129 73884 51 15.86 71951 -33.56
2130 73901 56 16.76 71968 -33.56
2131 73917 56 16.76 71984 -33.56
2132 73941 56 16.76 72007 -33.56
2133 73977 56 16.76 72041 -32.17
2134 74013 56 16.76 72076 -31.95
2135 74047 56 16.76 72110 -31.95
2136 74082 51 15.86 72144 -33.56
2137 74118 56 16.76 72179 -33.56
2138 74153 56 16.76 72214 -33.56
2139 74192 56 16.76 72252 -33.56
2140 74224 51 15.86 72284 -34.53
2141 74259 51 15.86 72319 -34.53
2142 74343 56 16.76 72402 -33.56
2143 74360 56 16.76 72418 -33.56
2144 74377 56 16.76 72434 -33.56
2145 74401 56 16.76 72457 -34.21
2146 74436 56 16.76 72491 -33.56
2147 74471 51 15.86 72526 -34.32
2148 74507 51 15.86 72561 -34.53
2149 74542 51 15.86 72595 -34.53
2150 74577 49 15.48 72629 -34.53
2151 74613 56 16.76 72664 -34.42
2152 74649 51 15.86 72698 -34.53
2153 74683 56 16.76 72732 -33.56
2154 74719 56 16.76 72767 -33.56
2155 74758 56 16.76 72804 -32.17
2156 74790 56 16.76 72835 -32.17
2157 74825 56 16.76 72870 -33.56
2158 74860 51 15.86 72905 -33.56
2159 74895 49 15.48 72939 -34.53
2160 74931 56 16.76 72974 -33.56
2161 74967 51 15.86 73009 -33.56
2162 75002 56 16.76 73044 -33.56
2163 75038 51 15.86 73078 -34.32
2164 75072 56 16.76 73112 -33.56
2165 75108 56 16.76 73147 -33.56
2166 75144 56 16.76 73182 -31.95
2167 75179 56 16.76 73216 -31.95
2168 75214 54 16.41 73250 -33.56
2169 75250 56 16.76 73284 -33.56
2170 75290 54 16.41 73323 -33.56
2171 75320 56 16.76 73353 -33.56
2172 75356 56 16.76 73388 -32.38
2173 75391 56 16.76 73422 -32.17
2174 75426 51 15.86 73456 -34.21
2175 75463 56 16.76 73492 -33.56
2176 75497 56 16.76 73526 -33.56
2177 75532 51 15.86 73560 -34.21
2178 75568 56 16.76 73595 -33.56
2179 75603 56 16.76 73629 -33.56
2180 75639 56 16.76 73663 -33.56
2181 75674 51 15.86 73698 -34.42
2182 75709 56 16.76 73733 -33.56
2183 75744 56 16.76 73767 -31.95
2184 75780 56 16.76 73801 -31.95
2185 75818 51 15.86 73838 -33.56
2186 75851 56 16.76 73870 -33.56
2187 75886 49 15.48 73904 -34.53
2188 75969 56 16.76 73987 -31.95
2189 75987 56 16.76 74003 -33.56
2190 76004 56 16.76 74019 -34.42
2191 76028 51 15.86 74042 -34.53
2192 76063 56 16.76 74076 -34.42
2193 76099 56 16.76 74111 -33.56
2194 76133 56 16.76 74145 -33.56
2195 76169 49 15.48 74180 -34.42
2196 76204 56 16.76 74214 -34.32
2197 76240 56 16.76 74249 -33.56
2198 76275 56 16.76 74283 -33.56
2199 76310 56 16.76 74318 -33.56
2200 76348 56 16.76 74356 -31.95
2201 76381 56 16.76 74387 -33.56
2202 76417 51 15.86 74423 -34.42
2203 76452 49 15.48 74457 -34.53
2204 76487 56 16.76 74491 -34.32
2205 76571 51 15.86 74574 -31.95
2206 76587 56 16.76 74590 -33.56
2207 76603 56 16.76 74606 -34.21
2208 76629 56 16.76 74630 -34.53
2209 76664 56 16.76 74664 -33.56
2210 76699 48 15.29 74698 -34.53
2211 76734 56 16.76 74733 -33.56
2212 76769 56 16.76 74767 -33.56
2213 76805 56 16.76 74802 -32.17
2214 76840 49 15.48 74836 -34.42
2215 76879 56 16.76 74874 -33.56
2216 76912 54 16.41 74906 -33.56
2217 76946 56 16.76 74940 -33.56
2218 76982 56 16.76 74975 -33.56
2219 77018 49 15.48 75010 -34.53
2220 77053 49 15.48 75044 -34.53
2221 77088 51 15.86 75079 -34.53
2222 77124 49 15.48 75114 -34.53
2223 77158 56 16.76 75149 -33.56
2224 77194 56 16.76 75184 -32.17
2225 77230 56 16.76 75218 -31.95
2226 77265 56 16.76 75252 -31.95
2227 77300 56 16.76 75286 -31.95
2228 77335 56 16.76 75321 -31.95
2229 77371 56 16.76 75356 -31.95
2230 77409 56 16.76 75393 -31.95
2231 77442 56 16.76 75425 -31.95
2232 77477 56 16.76 75460 -31.95
2233 77513 56 16.76 75495 -31.95
2234 77547 51 15.86 75529 -33.56
2235 77583 54 16.41 75563 -33.56
2236 77619 56 16.76 75598 -31.95
2237 77654 56 16.76 75632 -31.95
2238 77689 51 15.86 75666 -33.56
2239 77725 49 15.48 75701 -34.53
2240 77760 56 16.76 75736 -33.56
2241 77795 49 15.48 75770 -34.32
2242 77831 51 15.86 75805 -34.53
2243 77866 51 15.86 75840 -34.53
2244 77902 49 15.48 75875 -34.53
2245 77940 56 16.76 75912 -34.53
2246 77971 56 16.76 75944 -34.32
2247 78055 54 16.41 76027 -33.56
2248 78073 56 16.76 76043 -33.56
2249 78090 54 16.41 76059 -34.53
2250 78114 56 16.76 76082 -34.53
2251 78150 51 15.86 76117 -33.56
2252 78184 56 16.76 76152 -33.56
2253 78219 49 15.48 76186 -34.53
2254 78255 49 15.48 76221 -34.53
2255 78290 51 15.86 76255 -34.53
2256 78326 56 16.76 76290 -33.56
2257 78361 49 15.48 76324 -34.53
2258 78396 56 16.76 76359 -34.21
2259 78432 56 16.76 76393 -33.56
2260 78470 54 16.41 76430 -33.56
2261 78503 56 16.76 76462 -33.56
2262 78538 49 15.48 76496 -34.42
2263 78574 56 16.76 76531 -33.56
2264 78609 56 16.76 76566 -33.56
2265 78643 56 16.76 76600 -33.56
2266 78679 56 16.76 76635 -33.56
2267 78715 56 16.76 76669 -33.56
2268 78799 56 16.76 76752 -31.95
2269 78815 51 15.86 76768 -33.56
2270 78833 56 16.76 76784 -34.32
2271 78856 51 15.86 76807 -34.53
2272 78891 56 16.76 76842 -33.78
2273 78927 51 15.86 76877 -34.42
2274 78962 51 15.86 76912 -34.32
2275 79001 49 15.48 76950 -34.53
2276 79033 56 16.76 76982 -34.42
2277 79068 56 16.76 77016 -33.56
2278 79104 56 16.76 77051 -34.32
2279 79139 56 16.76 77086 -33.56
2280 79175 56 16.76 77121 -33.56
2281 79209 51 15.86 77155 -33.56
2282 79245 51 15.86 77189 -34.32
2283 79281 54 16.41 77224 -34.53
2284 79316 56 16.76 77258 -33.56
2285 79351 56 16.76 77293 -33.56
2286 79387 56 16.76 77328 -33.56
2287 79421 49 15.48 77362 -34.53
2288 79457 56 16.76 77397 -33.56
2289 79493 56 16.76 77432 -31.95
2290 79531 56 16.76 77469 -33.56
2291 79564 56 16.76 77501 -31.95
2292 79600 49 15.48 77536 -34.21
2293 79634 56 16.76 77571 -34.21
2294 79669 51 15.86 77605 -34.53
2295 79705 56 16.76 77639 -34.21
2296 79741 51 15.86 77674 -34.53
2297 79776 56 16.76 77709 -33.56
2298 79811 51 15.86 77743 -34.53
2299 79846 51 15.86 77778 -34.53
2300 79882 56 16.76 77813 -34.21
2301 79917 51 15.86 77847 -34.42
2302 79953 56 16.76 77881 -33.56
2303 79989 51 15.86 77916 -33.56
2304 80022 54 16.41 77950 -34.32
2305 80061 56 16.76 77988 -34.32
2306 80142 56 16.76 78068 -31.95
2307 80160 56 16.76 78085 -33.56
2308 80177 56 16.76 78102 -33.56
2309 80200 56 16.76 78124 -32.17
2310 80235 51 15.86 78158 -33.56
2311 80270 51 15.86 78193 -34.42
2312 80306 56 16.76 78228 -33.56
2313 80342 56 16.76 78263 -33.56
2314 80377 56 16.76 78297 -32.17
2315 80413 56 16.76 78331 -31.95
2316 80447 49 15.48 78366 -33.56
2317 80483 56 16.76 78401 -33.56
2318 80518 51 15.86 78435 -34.32
2319 80554 56 16.76 78470 -33.56
2320 80592 56 16.76 78507 -33.56
2321 80625 56 16.76 78539 -33.56
2322 80659 56 16.76 78573 -33.56
2323 80694 56 16.76 78607 -34.42
2324 80730 56 16.76 78642 -33.56
2325 80765 49 15.48 78677 -34.53
2326 80801 56 16.76 78712 -33.56
2327 80837 51 15.86 78747 -33.56
2328 80871 51 15.86 78781 -33.56
2329 80907 56 16.76 78815 -33.56
2330 80942 56 16.76 78849 -33.56
2331 81026 56 16.76 78932 -31.95
2332 81043 51 15.86 78948 -33.56
2333 81060 56 16.76 78964 -34.42
2334 81083 56 16.76 78987 -34.42
2335 81122 51 15.86 79025 -34.32
2336 81155 56 16.76 79057 -34.42
2337 81190 51 15.86 79092 -34.53
2338 81226 56 16.76 79126 -34.53
2339 81262 51 15.86 79161 -34.53
2340 81296 51 15.86 79195 -34.42
2341 81332 49 15.48 79230 -34.53
2342 81367 56 16.76 79264 -33.56
2343 81402 56 16.76 79298 -33.56
2344 81438 51 15.86 79333 -34.21
2345 81472 49 15.48 79367 -34.53
2346 81508 49 15.48 79402 -34.53
2347 81543 49 15.48 79437 -34.53
2348 81579 51 15.86 79472 -34.53
2349 81614 51 15.86 79507 -34.53
2350 81653 56 16.76 79545 -34.53
2351 81684 56 16.76 79577 -33.56
2352 81720 49 15.48 79612 -34.53
2353 81756 56 16.76 79647 -34.32
2354 81791 56 16.76 79681 -34.32
2355 81827 56 16.76 79716 -33.56
2356 81862 51 15.86 79751 -33.56
2357 81897 56 16.76 79785 -33.56
2358 81932 56 16.76 79820 -33.56
2359 81967 51 15.86 79854 -34.53
2360 82004 56 16.76 79889 -34.42
2361 82039 56 16.76 79923 -34.42
2362 82075 56 16.76 79958 -33.56
2363 82109 49 15.48 79992 -34.53
2364 82145 56 16.76 80026 -34.32
2365 82231 51 15.86 80112 -33.56
2366 82249 56 16.76 80128 -34.53
2367 82266 56 16.76 80144 -34.32
2368 82288 56 16.76 80164 -34.42
2369 82322 51 15.86 80199 -34.42
2370 82358 56 16.76 80233 -33.56
2371 82393 51 15.86 80267 -34.32
2372 82429 56 16.76 80301 -34.21
2373 82464 56 16.76 80336 -33.56
2374 82500 49 15.48 80371 -34.53
2375 82535 51 15.86 80406 -33.78
2376 82570 49 15.48 80440 -34.53
2377 82605 51 15.86 80475 -34.32
2378 82640 51 15.86 80509 -34.42
2379 82676 56 16.76 80544 -34.21
2380 82715 51 15.86 80582 -34.42
2381 82746 51 15.86 80613 -34.53
